SpectraSuite Data File
++++++++++++++++++++++++++++++++++++
Date: Thu Nov 14 15:42:59 CET 2019
User: fiberoptics
Dark Spectrum Present: No
Reference Spectrum Present: No
Number of Sampled Component Spectra: 1
Spectrometers: QEPB0198
Integration Time (usec): 100000 (QEPB0198)
Spectra Averaged: 1 (QEPB0198)
Boxcar Smoothing: 0 (QEPB0198)
Correct for Electrical Dark: No (QEPB0198)
Strobe/Lamp Enabled: No (QEPB0198)
Correct for Detector Non-linearity: No (QEPB0198)
Correct for Stray Light: No (QEPB0198)
Number of Pixels in Processed Spectrum: 1044
>>>>>Begin Processed Spectral Data<<<<<
348.19	2548.00
348.97	2542.00
349.76	2547.00
350.55	2546.00
351.34	2541.00
352.12	2547.00
352.91	2551.00
353.70	2549.00
354.48	2544.00
355.27	2544.00
356.06	2555.00
356.84	2548.00
357.63	2553.00
358.42	2557.00
359.20	2559.00
359.99	2556.00
360.77	2551.00
361.56	2548.00
362.35	2549.00
363.13	2554.00
363.92	2557.00
364.70	2559.00
365.49	2557.00
366.28	2555.00
367.06	2557.00
367.85	2557.00
368.63	2561.00
369.42	2558.00
370.20	2561.00
370.99	2564.00
371.77	2563.00
372.56	2560.00
373.35	2564.00
374.13	2575.00
374.92	2565.00
375.70	2576.00
376.49	2572.00
377.27	2580.00
378.06	2573.00
378.84	2581.00
379.62	2585.00
380.41	2594.00
381.19	2600.00
381.98	2608.00
382.76	2605.00
383.55	2606.00
384.33	2614.00
385.12	2618.00
385.90	2627.00
386.68	2638.00
387.47	2643.00
388.25	2647.00
389.04	2657.00
389.82	2674.00
390.60	2681.00
391.39	2686.00
392.17	2690.00
392.95	2703.00
393.74	2726.00
394.52	2731.00
395.30	2748.00
396.09	2766.00
396.87	2783.00
397.65	2803.00
398.44	2830.00
399.22	2853.00
400.00	2880.00
400.79	2919.00
401.57	2962.00
402.35	3004.00
403.13	3057.00
403.92	3124.00
404.70	3195.00
405.48	3281.00
406.26	3392.00
407.05	3477.00
407.83	3619.00
408.61	3768.00
409.39	3922.00
410.18	4112.00
410.96	4310.00
411.74	4554.00
412.52	4830.00
413.30	5113.00
414.08	5435.00
414.87	5783.00
415.65	6171.00
416.43	6600.00
417.21	7042.00
417.99	7534.00
418.77	8107.00
419.56	8666.00
420.34	9218.00
421.12	9870.00
421.90	10601.00
422.68	11296.00
423.46	12024.00
424.24	12881.00
425.02	13697.00
425.80	14499.00
426.58	15395.00
427.36	16333.00
428.14	17228.00
428.93	18130.00
429.71	19095.00
430.49	20033.00
431.27	20955.00
432.05	21885.00
432.83	22851.00
433.61	23724.00
434.39	24574.00
435.17	25422.00
435.95	26313.00
436.73	27054.00
437.51	27818.00
438.29	28575.00
439.07	29354.00
439.85	30056.00
440.62	30761.00
441.40	31493.00
442.18	32165.00
442.96	32836.00
443.74	33414.00
444.52	34012.00
445.30	34550.00
446.08	35196.00
446.86	35617.00
447.64	35948.00
448.42	36225.00
449.19	36287.00
449.97	36193.00
450.75	36152.00
451.53	35776.00
452.31	35294.00
453.09	34580.00
453.87	33825.00
454.64	33028.00
455.42	32007.00
456.20	31019.00
456.98	29905.00
457.76	28809.00
458.53	27629.00
459.31	26566.00
460.09	25411.00
460.87	24435.00
461.65	23427.00
462.42	22513.00
463.20	21695.00
463.98	20911.00
464.76	20201.00
465.53	19502.00
466.31	18892.00
467.09	18348.00
467.86	17727.00
468.64	17227.00
469.42	16707.00
470.20	16251.00
470.97	15766.00
471.75	15328.00
472.53	14897.00
473.30	14506.00
474.08	14122.00
474.86	13799.00
475.63	13434.00
476.41	13168.00
477.18	12896.00
477.96	12616.00
478.74	12437.00
479.51	12203.00
480.29	12084.00
481.07	11913.00
481.84	11827.00
482.62	11730.00
483.39	11706.00
484.17	11625.00
484.94	11655.00
485.72	11715.00
486.50	11708.00
487.27	11811.00
488.05	11898.00
488.82	11997.00
489.60	12132.00
490.37	12274.00
491.15	12491.00
491.92	12683.00
492.70	12838.00
493.47	13110.00
494.25	13371.00
495.02	13681.00
495.80	13987.00
496.57	14338.00
497.35	14696.00
498.12	15150.00
498.89	15492.00
499.67	15955.00
500.44	16422.00
501.22	16900.00
501.99	17354.00
502.77	17881.00
503.54	18409.00
504.31	18943.00
505.09	19474.00
505.86	20010.00
506.63	20606.00
507.41	21189.00
508.18	21704.00
508.96	22342.00
509.73	22942.00
510.50	23461.00
511.28	24007.00
512.05	24656.00
512.82	25142.00
513.59	25721.00
514.37	26293.00
515.14	26815.00
515.91	27357.00
516.69	27932.00
517.46	28404.00
518.23	28885.00
519.00	29433.00
519.78	29965.00
520.55	30386.00
521.32	30914.00
522.09	31345.00
522.87	31816.00
523.64	32268.00
524.41	32706.00
525.18	33218.00
525.95	33578.00
526.73	34010.00
527.50	34430.00
528.27	34833.00
529.04	35182.00
529.81	35503.00
530.59	35821.00
531.36	36180.00
532.13	36565.00
532.90	36801.00
533.67	37138.00
534.44	37441.00
535.21	37626.00
535.98	37991.00
536.76	38199.00
537.53	38465.00
538.30	38728.00
539.07	38885.00
539.84	39112.00
540.61	39269.00
541.38	39463.00
542.15	39729.00
542.92	39928.00
543.69	40055.00
544.46	40279.00
545.23	40358.00
546.00	40528.00
546.77	40692.00
547.54	40797.00
548.31	40885.00
549.08	41050.00
549.85	41121.00
550.62	41335.00
551.39	41330.00
552.16	41485.00
552.93	41529.00
553.70	41579.00
554.47	41671.00
555.24	41735.00
556.01	41756.00
556.78	41820.00
557.55	41875.00
558.32	41904.00
559.09	41855.00
559.85	41881.00
560.62	41942.00
561.39	41945.00
562.16	41932.00
562.93	41889.00
563.70	41895.00
564.47	41922.00
565.23	41903.00
566.00	41857.00
566.77	41924.00
567.54	41875.00
568.31	41843.00
569.08	41729.00
569.84	41749.00
570.61	41635.00
571.38	41596.00
572.15	41506.00
572.92	41424.00
573.68	41406.00
574.45	41267.00
575.22	41218.00
575.99	41121.00
576.75	41052.00
577.52	40936.00
578.29	40861.00
579.05	40838.00
579.82	40606.00
580.59	40512.00
581.36	40462.00
582.12	40389.00
582.89	40225.00
583.66	40233.00
584.42	40102.00
585.19	40053.00
585.96	40040.00
586.72	39923.00
587.49	39901.00
588.26	39781.00
589.02	39641.00
589.79	39569.00
590.55	39487.00
591.32	39398.00
592.09	39315.00
592.85	39276.00
593.62	39125.00
594.38	39017.00
595.15	38902.00
595.91	38840.00
596.68	38665.00
597.45	38557.00
598.21	38418.00
598.98	38285.00
599.74	38115.00
600.51	38016.00
601.27	37788.00
602.04	37704.00
602.80	37470.00
603.57	37191.00
604.33	37020.00
605.10	36844.00
605.86	36617.00
606.63	36295.00
607.39	36069.00
608.15	35917.00
608.92	35646.00
609.68	35473.00
610.45	35206.00
611.21	34928.00
611.98	34722.00
612.74	34421.00
613.50	34085.00
614.27	33872.00
615.03	33603.00
615.80	33376.00
616.56	33049.00
617.32	32784.00
618.09	32401.00
618.85	32065.00
619.61	31820.00
620.38	31540.00
621.14	31186.00
621.90	30926.00
622.67	30591.00
623.43	30184.00
624.19	29889.00
624.96	29580.00
625.72	29255.00
626.48	28916.00
627.24	28685.00
628.01	28319.00
628.77	27926.00
629.53	27666.00
630.29	27288.00
631.06	26996.00
631.82	26669.00
632.58	26440.00
633.34	26040.00
634.10	25792.00
634.87	25497.00
635.63	25166.00
636.39	24903.00
637.15	24591.00
637.91	24263.00
638.68	23960.00
639.44	23696.00
640.20	23391.00
640.96	23080.00
641.72	22831.00
642.48	22522.00
643.24	22255.00
644.00	21949.00
644.77	21648.00
645.53	21304.00
646.29	21052.00
647.05	20759.00
647.81	20489.00
648.57	20212.00
649.33	19957.00
650.09	19645.00
650.85	19380.00
651.61	19134.00
652.37	18886.00
653.13	18593.00
653.89	18358.00
654.65	18036.00
655.41	17783.00
656.17	17536.00
656.93	17306.00
657.69	17074.00
658.45	16735.00
659.21	16493.00
659.97	16203.00
660.73	15971.00
661.49	15613.00
662.25	15411.00
663.01	15120.00
663.77	14927.00
664.53	14688.00
665.29	14417.00
666.05	14119.00
666.80	13913.00
667.56	13655.00
668.32	13384.00
669.08	13182.00
669.84	12939.00
670.60	12695.00
671.36	12505.00
672.11	12283.00
672.87	12091.00
673.63	11877.00
674.39	11726.00
675.15	11540.00
675.91	11339.00
676.66	11201.00
677.42	11089.00
678.18	10978.00
678.94	10826.00
679.69	10674.00
680.45	10576.00
681.21	10454.00
681.97	10384.00
682.73	10268.00
683.48	10161.00
684.24	10031.00
685.00	9956.00
685.75	9822.00
686.51	9742.00
687.27	9639.00
688.02	9553.00
688.78	9464.00
689.54	9340.00
690.30	9246.00
691.05	9146.00
691.81	9069.00
692.56	8945.00
693.32	8885.00
694.08	8753.00
694.83	8648.00
695.59	8525.00
696.35	8455.00
697.10	8338.00
697.86	8264.00
698.61	8164.00
699.37	8051.00
700.13	7936.00
700.88	7861.00
701.64	7748.00
702.39	7651.00
703.15	7562.00
703.90	7460.00
704.66	7369.00
705.41	7286.00
706.17	7198.00
706.92	7105.00
707.68	7010.00
708.43	6935.00
709.19	6834.00
709.94	6742.00
710.70	6675.00
711.45	6598.00
712.21	6507.00
712.96	6454.00
713.72	6372.00
714.47	6289.00
715.22	6209.00
715.98	6132.00
716.73	6038.00
717.49	5985.00
718.24	5894.00
718.99	5827.00
719.75	5757.00
720.50	5686.00
721.26	5585.00
722.01	5544.00
722.76	5486.00
723.52	5416.00
724.27	5381.00
725.02	5316.00
725.78	5274.00
726.53	5196.00
727.28	5132.00
728.03	5119.00
728.79	5058.00
729.54	5014.00
730.29	4944.00
731.05	4912.00
731.80	4864.00
732.55	4802.00
733.30	4797.00
734.06	4749.00
734.81	4709.00
735.56	4659.00
736.31	4606.00
737.06	4563.00
737.82	4524.00
738.57	4508.00
739.32	4466.00
740.07	4420.00
740.82	4387.00
741.58	4359.00
742.33	4319.00
743.08	4264.00
743.83	4264.00
744.58	4213.00
745.33	4182.00
746.08	4158.00
746.84	4138.00
747.59	4107.00
748.34	4056.00
749.09	4043.00
749.84	3995.00
750.59	3977.00
751.34	3953.00
752.09	3912.00
752.84	3884.00
753.59	3859.00
754.34	3839.00
755.09	3805.00
755.84	3798.00
756.59	3757.00
757.34	3740.00
758.09	3710.00
758.84	3699.00
759.59	3673.00
760.34	3646.00
761.09	3630.00
761.84	3618.00
762.59	3576.00
763.34	3574.00
764.09	3546.00
764.84	3531.00
765.59	3511.00
766.34	3480.00
767.09	3468.00
767.84	3456.00
768.58	3441.00
769.33	3426.00
770.08	3401.00
770.83	3385.00
771.58	3366.00
772.33	3348.00
773.08	3341.00
773.83	3321.00
774.57	3298.00
775.32	3285.00
776.07	3268.00
776.82	3250.00
777.57	3227.00
778.31	3223.00
779.06	3202.00
779.81	3203.00
780.56	3188.00
781.31	3158.00
782.05	3171.00
782.80	3135.00
783.55	3131.00
784.30	3116.00
785.04	3103.00
785.79	3092.00
786.54	3086.00
787.28	3072.00
788.03	3060.00
788.78	3059.00
789.52	3043.00
790.27	3019.00
791.02	3011.00
791.76	3001.00
792.51	2994.00
793.26	2986.00
794.00	2972.00
794.75	2977.00
795.50	2962.00
796.24	2942.00
796.99	2951.00
797.73	2930.00
798.48	2934.00
799.23	2925.00
799.97	2900.00
800.72	2899.00
801.46	2891.00
802.21	2889.00
802.95	2880.00
803.70	2873.00
804.45	2867.00
805.19	2866.00
805.94	2853.00
806.68	2843.00
807.43	2847.00
808.17	2826.00
808.92	2830.00
809.66	2818.00
810.40	2814.00
811.15	2812.00
811.89	2801.00
812.64	2805.00
813.38	2785.00
814.13	2797.00
814.87	2786.00
815.62	2780.00
816.36	2771.00
817.10	2767.00
817.85	2762.00
818.59	2763.00
819.34	2761.00
820.08	2749.00
820.82	2738.00
821.57	2737.00
822.31	2740.00
823.05	2737.00
823.80	2725.00
824.54	2724.00
825.28	2721.00
826.03	2717.00
826.77	2722.00
827.51	2710.00
828.25	2703.00
829.00	2701.00
829.74	2700.00
830.48	2693.00
831.23	2690.00
831.97	2691.00
832.71	2681.00
833.45	2677.00
834.19	2677.00
834.94	2676.00
835.68	2667.00
836.42	2672.00
837.16	2667.00
837.90	2661.00
838.65	2663.00
839.39	2657.00
840.13	2659.00
840.87	2657.00
841.61	2643.00
842.35	2654.00
843.10	2644.00
843.84	2642.00
844.58	2638.00
845.32	2644.00
846.06	2634.00
846.80	2642.00
847.54	2630.00
848.28	2633.00
849.02	2624.00
849.76	2630.00
850.50	2620.00
851.24	2627.00
851.99	2615.00
852.73	2623.00
853.47	2619.00
854.21	2623.00
854.95	2620.00
855.69	2616.00
856.43	2612.00
857.17	2609.00
857.91	2607.00
858.64	2608.00
859.38	2601.00
860.12	2605.00
860.86	2600.00
861.60	2599.00
862.34	2593.00
863.08	2591.00
863.82	2598.00
864.56	2597.00
865.30	2600.00
866.04	2598.00
866.78	2592.00
867.52	2583.00
868.25	2583.00
868.99	2578.00
869.73	2587.00
870.47	2576.00
871.21	2587.00
871.95	2579.00
872.68	2594.00
873.42	2582.00
874.16	2579.00
874.90	2579.00
875.64	2577.00
876.37	2582.00
877.11	2581.00
877.85	2572.00
878.59	2573.00
879.32	2565.00
880.06	2571.00
880.80	2577.00
881.54	2571.00
882.27	2569.00
883.01	2572.00
883.75	2575.00
884.48	2568.00
885.22	2571.00
885.96	2566.00
886.70	2566.00
887.43	2569.00
888.17	2569.00
888.90	2560.00
889.64	2562.00
890.38	2568.00
891.11	2568.00
891.85	2563.00
892.59	2561.00
893.32	2570.00
894.06	2557.00
894.79	2565.00
895.53	2558.00
896.27	2559.00
897.00	2562.00
897.74	2558.00
898.47	2562.00
899.21	2560.00
899.94	2559.00
900.68	2560.00
901.41	2556.00
902.15	2561.00
902.88	2554.00
903.62	2546.00
904.35	2552.00
905.09	2578.00
905.82	2562.00
906.56	2563.00
907.29	2557.00
908.03	2542.00
908.76	2551.00
909.49	2549.00
910.23	2547.00
910.96	2556.00
911.70	2548.00
912.43	2552.00
913.16	2554.00
913.90	2552.00
914.63	2552.00
915.37	2548.00
916.10	2546.00
916.83	2553.00
917.57	2547.00
918.30	2544.00
919.03	2547.00
919.77	2551.00
920.50	2548.00
921.23	2549.00
921.97	2549.00
922.70	2549.00
923.43	2552.00
924.16	2549.00
924.90	2545.00
925.63	2547.00
926.36	2547.00
927.09	2554.00
927.83	2544.00
928.56	2552.00
929.29	2545.00
930.02	2556.00
930.75	2548.00
931.49	2557.00
932.22	2550.00
932.95	2552.00
933.68	2541.00
934.41	2548.00
935.14	2545.00
935.88	2549.00
936.61	2546.00
937.34	2543.00
938.07	2548.00
938.80	2543.00
939.53	2539.00
940.26	2547.00
940.99	2553.00
941.72	2551.00
942.46	2547.00
943.19	2546.00
943.92	2544.00
944.65	2540.00
945.38	2544.00
946.11	2546.00
946.84	2547.00
947.57	2552.00
948.30	2549.00
949.03	2544.00
949.76	2543.00
950.49	2549.00
951.22	2543.00
951.95	2547.00
952.68	2543.00
953.41	2540.00
954.14	2545.00
954.86	2539.00
955.59	2543.00
956.32	2547.00
957.05	2538.00
957.78	2546.00
958.51	2545.00
959.24	2546.00
959.97	2546.00
960.70	2539.00
961.43	2542.00
962.15	2544.00
962.88	2540.00
963.61	2540.00
964.34	2539.00
965.07	2538.00
965.80	2541.00
966.52	2537.00
967.25	2534.00
967.98	2537.00
968.71	2537.00
969.43	2536.00
970.16	2542.00
970.89	2537.00
971.62	2536.00
972.34	2532.00
973.07	2533.00
973.80	2535.00
974.53	2535.00
975.25	2538.00
975.98	2539.00
976.71	2535.00
977.43	2531.00
978.16	2530.00
978.89	2532.00
979.61	2528.00
980.34	2532.00
981.07	2541.00
981.79	2532.00
982.52	2534.00
983.25	2536.00
983.97	2533.00
984.70	2529.00
985.42	2537.00
986.15	2530.00
986.88	2533.00
987.60	2530.00
988.33	2527.00
989.05	2530.00
989.78	2529.00
990.50	2534.00
991.23	2537.00
991.95	2538.00
992.68	2531.00
993.40	2535.00
994.13	2539.00
994.85	2533.00
995.58	2537.00
996.30	2532.00
997.03	2533.00
997.75	2535.00
998.48	2535.00
999.20	2534.00
999.93	2534.00
1000.65	2531.00
1001.38	2532.00
1002.10	2530.00
1002.82	2525.00
1003.55	2533.00
1004.27	2531.00
1004.99	2534.00
1005.72	2537.00
1006.44	2530.00
1007.17	2533.00
1007.89	2531.00
1008.61	2538.00
1009.34	2536.00
1010.06	2528.00
1010.78	2531.00
1011.51	2530.00
1012.23	2543.00
1012.95	2532.00
1013.67	2529.00
1014.40	2535.00
1015.12	2536.00
1015.84	2534.00
1016.56	2534.00
1017.29	2533.00
1018.01	2536.00
1018.73	2539.00
1019.45	2535.00
1020.18	2527.00
1020.90	2534.00
1021.62	2532.00
1022.34	2525.00
1023.06	2540.00
1023.78	2550.00
1024.51	2525.00
1025.23	2533.00
1025.95	2540.00
1026.67	2540.00
1027.39	2531.00
1028.11	2539.00
1028.83	2535.00
1029.55	2535.00
1030.28	2538.00
1031.00	2531.00
1031.72	2539.00
1032.44	2537.00
1033.16	2534.00
1033.88	2533.00
1034.60	2538.00
1035.32	2535.00
1036.04	2539.00
1036.76	2533.00
1037.48	2535.00
1038.20	2537.00
1038.92	2539.00
1039.64	2537.00
1040.36	2537.00
1041.08	2537.00
1041.80	2539.00
1042.52	2531.00
1043.24	2536.00
1043.96	2533.00
1044.68	2542.00
1045.40	2540.00
1046.11	2543.00
1046.83	2538.00
1047.55	2545.00
1048.27	2533.00
1048.99	2538.00
1049.71	2538.00
1050.43	2542.00
1051.15	2528.00
1051.86	2550.00
1052.58	2540.00
1053.30	2541.00
1054.02	2539.00
1054.74	2545.00
1055.45	2557.00
1056.17	2545.00
1056.89	2530.00
1057.61	2538.00
1058.33	2547.00
1059.04	2546.00
1059.76	2541.00
1060.48	2534.00
1061.20	2539.00
1061.91	2539.00
1062.63	2541.00
1063.35	2540.00
1064.06	2543.00
1064.78	2537.00
1065.50	2542.00
1066.22	2540.00
1066.93	2541.00
1067.65	2539.00
1068.36	2540.00
1069.08	2542.00
1069.80	2544.00
1070.51	2547.00
1071.23	2547.00
1071.95	2551.00
1072.66	2546.00
1073.38	2549.00
1074.09	2551.00
1074.81	2546.00
1075.53	2549.00
1076.24	2547.00
1076.96	2555.00
1077.67	2557.00
1078.39	2558.00
1079.10	2549.00
1079.82	2559.00
1080.53	2557.00
1081.25	2561.00
1081.96	2564.00
1082.68	2560.00
1083.39	2554.00
1084.11	2556.00
1084.82	2556.00
1085.54	2566.00
1086.25	2562.00
1086.97	2564.00
1087.68	2574.00
1088.39	2569.00
1089.11	2579.00
1089.82	2566.00
1090.54	2573.00
1091.25	2569.00
1091.96	2572.00
1092.68	2578.00
1093.39	2579.00
1094.10	2572.00
1094.82	2577.00
1095.53	2577.00
1096.24	2577.00
1096.96	2573.00
1097.67	2572.00
1098.38	2572.00
1099.10	2570.00
1099.81	2577.00
1100.52	2573.00
1101.23	2577.00
1101.95	2581.00
1102.66	2573.00
1103.37	2569.00
1104.08	2572.00
1104.80	2574.00
1105.51	2580.00
1106.22	2590.00
1106.93	2566.00
1107.64	2565.00
1108.36	2583.00
1109.07	2571.00
1109.78	2571.00
1110.49	2572.00
1111.20	2571.00
1111.91	2575.00
1112.63	2572.00
1113.34	2570.00
1114.05	2570.00
1114.76	2569.00
1115.47	2571.00
1116.18	2572.00
1116.89	2486.00
1117.60	2483.00
1118.31	2481.00
1119.02	2482.00
1119.73	2544.00
1120.44	2551.00
1121.16	2544.00
1121.87	2545.00
1122.58	2544.00
1123.29	2543.00
1124.00	2568.00
1124.71	2562.00
1125.42	2584.00
1126.12	2585.00
1126.83	2569.00
1127.54	2568.00
1128.25	2485.00
1128.96	2485.00
1129.67	2490.00
1130.38	2503.00