SpectraSuite Data File
++++++++++++++++++++++++++++++++++++
Date: Sat Dec 14 18:37:02 CET 2019
User: fiberoptics
Dark Spectrum Present: No
Reference Spectrum Present: No
Number of Sampled Component Spectra: 1
Spectrometers: QEPB0198
Integration Time (usec): 100000 (QEPB0198)
Spectra Averaged: 1 (QEPB0198)
Boxcar Smoothing: 0 (QEPB0198)
Correct for Electrical Dark: No (QEPB0198)
Strobe/Lamp Enabled: No (QEPB0198)
Correct for Detector Non-linearity: No (QEPB0198)
Correct for Stray Light: No (QEPB0198)
Number of Pixels in Processed Spectrum: 1044
>>>>>Begin Processed Spectral Data<<<<<
348.19	2541.00
348.97	2534.00
349.76	2539.00
350.55	2536.00
351.34	2535.00
352.12	2539.00
352.91	2539.00
353.70	2538.00
354.48	2531.00
355.27	2537.00
356.06	2543.00
356.84	2540.00
357.63	2544.00
358.42	2545.00
359.20	2553.00
359.99	2550.00
360.77	2544.00
361.56	2537.00
362.35	2542.00
363.13	2546.00
363.92	2543.00
364.70	2548.00
365.49	2547.00
366.28	2548.00
367.06	2552.00
367.85	2554.00
368.63	2544.00
369.42	2549.00
370.20	2552.00
370.99	2553.00
371.77	2553.00
372.56	2553.00
373.35	2553.00
374.13	2563.00
374.92	2558.00
375.70	2568.00
376.49	2563.00
377.27	2566.00
378.06	2568.00
378.84	2574.00
379.62	2581.00
380.41	2584.00
381.19	2590.00
381.98	2593.00
382.76	2592.00
383.55	2593.00
384.33	2600.00
385.12	2611.00
385.90	2621.00
386.68	2627.00
387.47	2630.00
388.25	2641.00
389.04	2645.00
389.82	2669.00
390.60	2667.00
391.39	2670.00
392.17	2685.00
392.95	2695.00
393.74	2713.00
394.52	2727.00
395.30	2750.00
396.09	2760.00
396.87	2782.00
397.65	2794.00
398.44	2815.00
399.22	2848.00
400.00	2874.00
400.79	2907.00
401.57	2941.00
402.35	2980.00
403.13	3044.00
403.92	3109.00
404.70	3177.00
405.48	3264.00
406.26	3364.00
407.05	3487.00
407.83	3625.00
408.61	3756.00
409.39	3928.00
410.18	4107.00
410.96	4319.00
411.74	4556.00
412.52	4830.00
413.30	5103.00
414.08	5455.00
414.87	5800.00
415.65	6191.00
416.43	6631.00
417.21	7086.00
417.99	7587.00
418.77	8155.00
419.56	8691.00
420.34	9333.00
421.12	10032.00
421.90	10684.00
422.68	11414.00
423.46	12262.00
424.24	13035.00
425.02	13878.00
425.80	14750.00
426.58	15649.00
427.36	16562.00
428.14	17521.00
428.93	18440.00
429.71	19465.00
430.49	20488.00
431.27	21366.00
432.05	22331.00
432.83	23354.00
433.61	24266.00
434.39	25160.00
435.17	26084.00
435.95	26916.00
436.73	27776.00
437.51	28549.00
438.29	29378.00
439.07	30171.00
439.85	30900.00
440.62	31640.00
441.40	32338.00
442.18	33079.00
442.96	33722.00
443.74	34413.00
444.52	35094.00
445.30	35612.00
446.08	36185.00
446.86	36692.00
447.64	36947.00
448.42	37230.00
449.19	37332.00
449.97	37322.00
450.75	37093.00
451.53	36746.00
452.31	36208.00
453.09	35467.00
453.87	34639.00
454.64	33693.00
455.42	32710.00
456.20	31606.00
456.98	30481.00
457.76	29242.00
458.53	28157.00
459.31	27010.00
460.09	25858.00
460.87	24848.00
461.65	23856.00
462.42	22941.00
463.20	22053.00
463.98	21328.00
464.76	20600.00
465.53	19858.00
466.31	19205.00
467.09	18569.00
467.86	18062.00
468.64	17513.00
469.42	16984.00
470.20	16520.00
470.97	16032.00
471.75	15590.00
472.53	15177.00
473.30	14786.00
474.08	14403.00
474.86	14037.00
475.63	13695.00
476.41	13429.00
477.18	13121.00
477.96	12851.00
478.74	12641.00
479.51	12474.00
480.29	12295.00
481.07	12144.00
481.84	12063.00
482.62	11996.00
483.39	11948.00
484.17	11920.00
484.94	11922.00
485.72	11961.00
486.50	12019.00
487.27	12094.00
488.05	12184.00
488.82	12292.00
489.60	12409.00
490.37	12609.00
491.15	12794.00
491.92	13008.00
492.70	13271.00
493.47	13541.00
494.25	13791.00
495.02	14159.00
495.80	14472.00
496.57	14867.00
497.35	15252.00
498.12	15671.00
498.89	16060.00
499.67	16543.00
500.44	17050.00
501.22	17524.00
501.99	18075.00
502.77	18587.00
503.54	19134.00
504.31	19807.00
505.09	20331.00
505.86	20912.00
506.63	21488.00
507.41	22157.00
508.18	22711.00
508.96	23290.00
509.73	23897.00
510.50	24513.00
511.28	25135.00
512.05	25753.00
512.82	26386.00
513.59	26943.00
514.37	27491.00
515.14	28173.00
515.91	28688.00
516.69	29259.00
517.46	29755.00
518.23	30383.00
519.00	30872.00
519.78	31399.00
520.55	31934.00
521.32	32483.00
522.09	33062.00
522.87	33499.00
523.64	34008.00
524.41	34500.00
525.18	34925.00
525.95	35409.00
526.73	35774.00
527.50	36257.00
528.27	36717.00
529.04	37057.00
529.81	37472.00
530.59	37770.00
531.36	38135.00
532.13	38542.00
532.90	38799.00
533.67	39181.00
534.44	39484.00
535.21	39687.00
535.98	40089.00
536.76	40316.00
537.53	40685.00
538.30	40809.00
539.07	41098.00
539.84	41408.00
540.61	41506.00
541.38	41786.00
542.15	41969.00
542.92	42216.00
543.69	42351.00
544.46	42652.00
545.23	42763.00
546.00	42940.00
546.77	43022.00
547.54	43183.00
548.31	43247.00
549.08	43381.00
549.85	43531.00
550.62	43667.00
551.39	43735.00
552.16	43812.00
552.93	43930.00
553.70	44089.00
554.47	44170.00
555.24	44240.00
556.01	44194.00
556.78	44284.00
557.55	44277.00
558.32	44337.00
559.09	44333.00
559.85	44419.00
560.62	44340.00
561.39	44459.00
562.16	44420.00
562.93	44352.00
563.70	44334.00
564.47	44403.00
565.23	44337.00
566.00	44333.00
566.77	44322.00
567.54	44325.00
568.31	44220.00
569.08	44236.00
569.84	44124.00
570.61	44068.00
571.38	43988.00
572.15	43952.00
572.92	43980.00
573.68	43799.00
574.45	43713.00
575.22	43541.00
575.99	43517.00
576.75	43358.00
577.52	43325.00
578.29	43104.00
579.05	43082.00
579.82	42873.00
580.59	42775.00
581.36	42653.00
582.12	42378.00
582.89	42246.00
583.66	42083.00
584.42	41898.00
585.19	41684.00
585.96	41476.00
586.72	41303.00
587.49	41141.00
588.26	40854.00
589.02	40569.00
589.79	40346.00
590.55	40149.00
591.32	39901.00
592.09	39674.00
592.85	39415.00
593.62	39048.00
594.38	38896.00
595.15	38611.00
595.91	38394.00
596.68	38083.00
597.45	37780.00
598.21	37508.00
598.98	37242.00
599.74	36993.00
600.51	36778.00
601.27	36471.00
602.04	36130.00
602.80	35843.00
603.57	35628.00
604.33	35327.00
605.10	35077.00
605.86	34773.00
606.63	34452.00
607.39	34203.00
608.15	33955.00
608.92	33721.00
609.68	33372.00
610.45	33114.00
611.21	32801.00
611.98	32503.00
612.74	32234.00
613.50	32002.00
614.27	31668.00
615.03	31446.00
615.80	31174.00
616.56	30856.00
617.32	30505.00
618.09	30227.00
618.85	29917.00
619.61	29621.00
620.38	29288.00
621.14	29059.00
621.90	28707.00
622.67	28375.00
623.43	28065.00
624.19	27822.00
624.96	27491.00
625.72	27170.00
626.48	26818.00
627.24	26583.00
628.01	26279.00
628.77	25965.00
629.53	25656.00
630.29	25355.00
631.06	25091.00
631.82	24787.00
632.58	24455.00
633.34	24204.00
634.10	23953.00
634.87	23741.00
635.63	23487.00
636.39	23202.00
637.15	22854.00
637.91	22574.00
638.68	22302.00
639.44	22018.00
640.20	21753.00
640.96	21455.00
641.72	21173.00
642.48	20985.00
643.24	20636.00
644.00	20361.00
644.77	20126.00
645.53	19843.00
646.29	19613.00
647.05	19365.00
647.81	19092.00
648.57	18844.00
649.33	18561.00
650.09	18361.00
650.85	18074.00
651.61	17923.00
652.37	17605.00
653.13	17375.00
653.89	17137.00
654.65	16911.00
655.41	16665.00
656.17	16373.00
656.93	16175.00
657.69	15927.00
658.45	15723.00
659.21	15419.00
659.97	15216.00
660.73	14957.00
661.49	14659.00
662.25	14478.00
663.01	14204.00
663.77	13951.00
664.53	13729.00
665.29	13508.00
666.05	13299.00
666.80	13063.00
667.56	12871.00
668.32	12636.00
669.08	12401.00
669.84	12165.00
670.60	11941.00
671.36	11754.00
672.11	11587.00
672.87	11419.00
673.63	11205.00
674.39	11060.00
675.15	10899.00
675.91	10700.00
676.66	10582.00
677.42	10490.00
678.18	10363.00
678.94	10230.00
679.69	10111.00
680.45	9981.00
681.21	9908.00
681.97	9817.00
682.73	9704.00
683.48	9598.00
684.24	9511.00
685.00	9436.00
685.75	9303.00
686.51	9250.00
687.27	9159.00
688.02	9061.00
688.78	8981.00
689.54	8888.00
690.30	8791.00
691.05	8725.00
691.81	8605.00
692.56	8520.00
693.32	8410.00
694.08	8342.00
694.83	8242.00
695.59	8124.00
696.35	8057.00
697.10	7955.00
697.86	7866.00
698.61	7767.00
699.37	7684.00
700.13	7623.00
700.88	7496.00
701.64	7396.00
702.39	7335.00
703.15	7219.00
703.90	7132.00
704.66	7047.00
705.41	6959.00
706.17	6846.00
706.92	6785.00
707.68	6685.00
708.43	6633.00
709.19	6565.00
709.94	6507.00
710.70	6427.00
711.45	6344.00
712.21	6273.00
712.96	6199.00
713.72	6091.00
714.47	6041.00
715.22	5957.00
715.98	5885.00
716.73	5829.00
717.49	5740.00
718.24	5673.00
718.99	5621.00
719.75	5542.00
720.50	5481.00
721.26	5396.00
722.01	5333.00
722.76	5286.00
723.52	5243.00
724.27	5191.00
725.02	5111.00
725.78	5076.00
726.53	5031.00
727.28	4981.00
728.03	4937.00
728.79	4881.00
729.54	4844.00
730.29	4776.00
731.05	4771.00
731.80	4722.00
732.55	4653.00
733.30	4643.00
734.06	4587.00
734.81	4555.00
735.56	4509.00
736.31	4463.00
737.06	4435.00
737.82	4393.00
738.57	4357.00
739.32	4327.00
740.07	4292.00
740.82	4248.00
741.58	4230.00
742.33	4182.00
743.08	4162.00
743.83	4134.00
744.58	4110.00
745.33	4077.00
746.08	4043.00
746.84	4027.00
747.59	3985.00
748.34	3953.00
749.09	3937.00
749.84	3884.00
750.59	3884.00
751.34	3855.00
752.09	3837.00
752.84	3796.00
753.59	3762.00
754.34	3759.00
755.09	3727.00
755.84	3698.00
756.59	3682.00
757.34	3643.00
758.09	3636.00
758.84	3623.00
759.59	3597.00
760.34	3575.00
761.09	3551.00
761.84	3534.00
762.59	3519.00
763.34	3508.00
764.09	3475.00
764.84	3465.00
765.59	3455.00
766.34	3418.00
767.09	3412.00
767.84	3391.00
768.58	3366.00
769.33	3343.00
770.08	3338.00
770.83	3318.00
771.58	3313.00
772.33	3297.00
773.08	3275.00
773.83	3262.00
774.57	3259.00
775.32	3240.00
776.07	3221.00
776.82	3205.00
777.57	3192.00
778.31	3171.00
779.06	3155.00
779.81	3149.00
780.56	3143.00
781.31	3115.00
782.05	3106.00
782.80	3103.00
783.55	3077.00
784.30	3072.00
785.04	3065.00
785.79	3046.00
786.54	3057.00
787.28	3023.00
788.03	3014.00
788.78	3008.00
789.52	3003.00
790.27	2988.00
791.02	2988.00
791.76	2978.00
792.51	2960.00
793.26	2949.00
794.00	2937.00
794.75	2941.00
795.50	2918.00
796.24	2921.00
796.99	2913.00
797.73	2897.00
798.48	2896.00
799.23	2887.00
799.97	2883.00
800.72	2870.00
801.46	2864.00
802.21	2858.00
802.95	2849.00
803.70	2838.00
804.45	2842.00
805.19	2830.00
805.94	2819.00
806.68	2817.00
807.43	2815.00
808.17	2807.00
808.92	2806.00
809.66	2797.00
810.40	2792.00
811.15	2789.00
811.89	2773.00
812.64	2778.00
813.38	2768.00
814.13	2767.00
814.87	2764.00
815.62	2756.00
816.36	2745.00
817.10	2739.00
817.85	2744.00
818.59	2735.00
819.34	2734.00
820.08	2730.00
820.82	2715.00
821.57	2710.00
822.31	2719.00
823.05	2714.00
823.80	2702.00
824.54	2709.00
825.28	2698.00
826.03	2691.00
826.77	2700.00
827.51	2682.00
828.25	2681.00
829.00	2688.00
829.74	2684.00
830.48	2666.00
831.23	2675.00
831.97	2671.00
832.71	2655.00
833.45	2653.00
834.19	2662.00
834.94	2657.00
835.68	2653.00
836.42	2652.00
837.16	2646.00
837.90	2649.00
838.65	2648.00
839.39	2645.00
840.13	2635.00
840.87	2640.00
841.61	2629.00
842.35	2631.00
843.10	2635.00
843.84	2625.00
844.58	2627.00
845.32	2630.00
846.06	2623.00
846.80	2625.00
847.54	2620.00
848.28	2617.00
849.02	2617.00
849.76	2614.00
850.50	2608.00
851.24	2611.00
851.99	2608.00
852.73	2608.00
853.47	2604.00
854.21	2598.00
854.95	2602.00
855.69	2596.00
856.43	2596.00
857.17	2595.00
857.91	2593.00
858.64	2590.00
859.38	2581.00
860.12	2590.00
860.86	2591.00
861.60	2587.00
862.34	2579.00
863.08	2576.00
863.82	2579.00
864.56	2577.00
865.30	2584.00
866.04	2586.00
866.78	2577.00
867.52	2575.00
868.25	2576.00
868.99	2569.00
869.73	2572.00
870.47	2567.00
871.21	2574.00
871.95	2571.00
872.68	2581.00
873.42	2564.00
874.16	2564.00
874.90	2561.00
875.64	2563.00
876.37	2567.00
877.11	2560.00
877.85	2559.00
878.59	2560.00
879.32	2557.00
880.06	2558.00
880.80	2561.00
881.54	2559.00
882.27	2556.00
883.01	2554.00
883.75	2558.00
884.48	2564.00
885.22	2555.00
885.96	2563.00
886.70	2551.00
887.43	2554.00
888.17	2555.00
888.90	2545.00
889.64	2553.00
890.38	2554.00
891.11	2557.00
891.85	2556.00
892.59	2549.00
893.32	2556.00
894.06	2545.00
894.79	2547.00
895.53	2552.00
896.27	2555.00
897.00	2546.00
897.74	2551.00
898.47	2548.00
899.21	2553.00
899.94	2548.00
900.68	2549.00
901.41	2538.00
902.15	2551.00
902.88	2542.00
903.62	2537.00
904.35	2540.00
905.09	2563.00
905.82	2542.00
906.56	2549.00
907.29	2546.00
908.03	2538.00
908.76	2532.00
909.49	2536.00
910.23	2537.00
910.96	2541.00
911.70	2543.00
912.43	2538.00
913.16	2538.00
913.90	2537.00
914.63	2540.00
915.37	2533.00
916.10	2539.00
916.83	2540.00
917.57	2535.00
918.30	2532.00
919.03	2539.00
919.77	2538.00
920.50	2535.00
921.23	2543.00
921.97	2539.00
922.70	2540.00
923.43	2541.00
924.16	2536.00
924.90	2529.00
925.63	2538.00
926.36	2535.00
927.09	2544.00
927.83	2535.00
928.56	2541.00
929.29	2533.00
930.02	2543.00
930.75	2534.00
931.49	2544.00
932.22	2539.00
932.95	2543.00
933.68	2530.00
934.41	2534.00
935.14	2528.00
935.88	2541.00
936.61	2539.00
937.34	2539.00
938.07	2539.00
938.80	2531.00
939.53	2533.00
940.26	2535.00
940.99	2539.00
941.72	2537.00
942.46	2534.00
943.19	2533.00
943.92	2537.00
944.65	2525.00
945.38	2533.00
946.11	2530.00
946.84	2535.00
947.57	2535.00
948.30	2537.00
949.03	2533.00
949.76	2527.00
950.49	2536.00
951.22	2532.00
951.95	2540.00
952.68	2529.00
953.41	2533.00
954.14	2536.00
954.86	2527.00
955.59	2527.00
956.32	2538.00
957.05	2529.00
957.78	2531.00
958.51	2532.00
959.24	2533.00
959.97	2529.00
960.70	2530.00
961.43	2525.00
962.15	2534.00
962.88	2523.00
963.61	2528.00
964.34	2530.00
965.07	2527.00
965.80	2531.00
966.52	2533.00
967.25	2526.00
967.98	2530.00
968.71	2527.00
969.43	2529.00
970.16	2528.00
970.89	2522.00
971.62	2523.00
972.34	2522.00
973.07	2525.00
973.80	2529.00
974.53	2522.00
975.25	2529.00
975.98	2522.00
976.71	2528.00
977.43	2520.00
978.16	2521.00
978.89	2515.00
979.61	2522.00
980.34	2523.00
981.07	2530.00
981.79	2521.00
982.52	2524.00
983.25	2524.00
983.97	2520.00
984.70	2515.00
985.42	2527.00
986.15	2518.00
986.88	2521.00
987.60	2526.00
988.33	2518.00
989.05	2518.00
989.78	2520.00
990.50	2519.00
991.23	2522.00
991.95	2527.00
992.68	2524.00
993.40	2523.00
994.13	2528.00
994.85	2524.00
995.58	2526.00
996.30	2519.00
997.03	2518.00
997.75	2525.00
998.48	2521.00
999.20	2529.00
999.93	2521.00
1000.65	2523.00
1001.38	2517.00
1002.10	2524.00
1002.82	2513.00
1003.55	2521.00
1004.27	2521.00
1004.99	2520.00
1005.72	2523.00
1006.44	2522.00
1007.17	2521.00
1007.89	2517.00
1008.61	2519.00
1009.34	2524.00
1010.06	2525.00
1010.78	2523.00
1011.51	2516.00
1012.23	2525.00
1012.95	2515.00
1013.67	2517.00
1014.40	2524.00
1015.12	2522.00
1015.84	2525.00
1016.56	2521.00
1017.29	2519.00
1018.01	2525.00
1018.73	2527.00
1019.45	2517.00
1020.18	2521.00
1020.90	2528.00
1021.62	2521.00
1022.34	2523.00
1023.06	2525.00
1023.78	2535.00
1024.51	2520.00
1025.23	2518.00
1025.95	2524.00
1026.67	2527.00
1027.39	2519.00
1028.11	2523.00
1028.83	2526.00
1029.55	2522.00
1030.28	2526.00
1031.00	2519.00
1031.72	2529.00
1032.44	2527.00
1033.16	2522.00
1033.88	2525.00
1034.60	2525.00
1035.32	2524.00
1036.04	2528.00
1036.76	2527.00
1037.48	2525.00
1038.20	2522.00
1038.92	2525.00
1039.64	2526.00
1040.36	2522.00
1041.08	2529.00
1041.80	2527.00
1042.52	2522.00
1043.24	2525.00
1043.96	2526.00
1044.68	2531.00
1045.40	2529.00
1046.11	2531.00
1046.83	2524.00
1047.55	2532.00
1048.27	2523.00
1048.99	2529.00
1049.71	2532.00
1050.43	2531.00
1051.15	2523.00
1051.86	2540.00
1052.58	2525.00
1053.30	2536.00
1054.02	2529.00
1054.74	2538.00
1055.45	2535.00
1056.17	2532.00
1056.89	2519.00
1057.61	2529.00
1058.33	2533.00
1059.04	2535.00
1059.76	2525.00
1060.48	2524.00
1061.20	2527.00
1061.91	2531.00
1062.63	2527.00
1063.35	2524.00
1064.06	2528.00
1064.78	2534.00
1065.50	2530.00
1066.22	2532.00
1066.93	2532.00
1067.65	2533.00
1068.36	2532.00
1069.08	2532.00
1069.80	2538.00
1070.51	2532.00
1071.23	2532.00
1071.95	2535.00
1072.66	2531.00
1073.38	2540.00
1074.09	2534.00
1074.81	2534.00
1075.53	2534.00
1076.24	2539.00
1076.96	2543.00
1077.67	2543.00
1078.39	2542.00
1079.10	2540.00
1079.82	2546.00
1080.53	2544.00
1081.25	2543.00
1081.96	2547.00
1082.68	2543.00
1083.39	2543.00
1084.11	2547.00
1084.82	2545.00
1085.54	2551.00
1086.25	2554.00
1086.97	2551.00
1087.68	2556.00
1088.39	2557.00
1089.11	2559.00
1089.82	2549.00
1090.54	2561.00
1091.25	2557.00
1091.96	2558.00
1092.68	2561.00
1093.39	2561.00
1094.10	2559.00
1094.82	2559.00
1095.53	2561.00
1096.24	2563.00
1096.96	2556.00
1097.67	2563.00
1098.38	2560.00
1099.10	2556.00
1099.81	2562.00
1100.52	2561.00
1101.23	2561.00
1101.95	2570.00
1102.66	2558.00
1103.37	2556.00
1104.08	2559.00
1104.80	2560.00
1105.51	2560.00
1106.22	2568.00
1106.93	2556.00
1107.64	2553.00
1108.36	2568.00
1109.07	2559.00
1109.78	2557.00
1110.49	2551.00
1111.20	2559.00
1111.91	2560.00
1112.63	2559.00
1113.34	2557.00
1114.05	2560.00
1114.76	2555.00
1115.47	2557.00
1116.18	2563.00
1116.89	2481.00
1117.60	2476.00
1118.31	2473.00
1119.02	2474.00
1119.73	2536.00
1120.44	2539.00
1121.16	2531.00
1121.87	2536.00
1122.58	2535.00
1123.29	2532.00
1124.00	2559.00
1124.71	2553.00
1125.42	2565.00
1126.12	2567.00
1126.83	2554.00
1127.54	2559.00
1128.25	2479.00
1128.96	2478.00
1129.67	2481.00
1130.38	2496.00