SpectraSuite Data File
++++++++++++++++++++++++++++++++++++
Date: Sat Dec 14 18:48:09 CET 2019
User: fiberoptics
Dark Spectrum Present: No
Reference Spectrum Present: No
Number of Sampled Component Spectra: 1
Spectrometers: QEPB0198
Integration Time (usec): 100000 (QEPB0198)
Spectra Averaged: 1 (QEPB0198)
Boxcar Smoothing: 0 (QEPB0198)
Correct for Electrical Dark: No (QEPB0198)
Strobe/Lamp Enabled: No (QEPB0198)
Correct for Detector Non-linearity: No (QEPB0198)
Correct for Stray Light: No (QEPB0198)
Number of Pixels in Processed Spectrum: 1044
>>>>>Begin Processed Spectral Data<<<<<
348.19	2546.00
348.97	2531.00
349.76	2542.00
350.55	2542.00
351.34	2538.00
352.12	2549.00
352.91	2544.00
353.70	2539.00
354.48	2538.00
355.27	2543.00
356.06	2549.00
356.84	2544.00
357.63	2548.00
358.42	2546.00
359.20	2557.00
359.99	2554.00
360.77	2547.00
361.56	2543.00
362.35	2547.00
363.13	2551.00
363.92	2552.00
364.70	2551.00
365.49	2551.00
366.28	2549.00
367.06	2557.00
367.85	2557.00
368.63	2552.00
369.42	2553.00
370.20	2557.00
370.99	2559.00
371.77	2561.00
372.56	2561.00
373.35	2563.00
374.13	2573.00
374.92	2564.00
375.70	2571.00
376.49	2572.00
377.27	2572.00
378.06	2579.00
378.84	2586.00
379.62	2589.00
380.41	2590.00
381.19	2598.00
381.98	2608.00
382.76	2602.00
383.55	2601.00
384.33	2617.00
385.12	2621.00
385.90	2633.00
386.68	2639.00
387.47	2643.00
388.25	2647.00
389.04	2657.00
389.82	2672.00
390.60	2678.00
391.39	2691.00
392.17	2700.00
392.95	2704.00
393.74	2725.00
394.52	2741.00
395.30	2765.00
396.09	2771.00
396.87	2791.00
397.65	2823.00
398.44	2836.00
399.22	2866.00
400.00	2896.00
400.79	2939.00
401.57	2988.00
402.35	3030.00
403.13	3088.00
403.92	3154.00
404.70	3231.00
405.48	3319.00
406.26	3426.00
407.05	3549.00
407.83	3678.00
408.61	3853.00
409.39	4032.00
410.18	4219.00
410.96	4447.00
411.74	4706.00
412.52	5000.00
413.30	5304.00
414.08	5660.00
414.87	6036.00
415.65	6467.00
416.43	6891.00
417.21	7416.00
417.99	7952.00
418.77	8537.00
419.56	9156.00
420.34	9822.00
421.12	10516.00
421.90	11276.00
422.68	12071.00
423.46	12901.00
424.24	13764.00
425.02	14691.00
425.80	15593.00
426.58	16567.00
427.36	17513.00
428.14	18495.00
428.93	19512.00
429.71	20569.00
430.49	21655.00
431.27	22614.00
432.05	23673.00
432.83	24723.00
433.61	25651.00
434.39	26592.00
435.17	27578.00
435.95	28501.00
436.73	29388.00
437.51	30316.00
438.29	31095.00
439.07	31914.00
439.85	32699.00
440.62	33442.00
441.40	34289.00
442.18	35019.00
442.96	35741.00
443.74	36408.00
444.52	37060.00
445.30	37650.00
446.08	38319.00
446.86	38789.00
447.64	39182.00
448.42	39416.00
449.19	39502.00
449.97	39414.00
450.75	39288.00
451.53	38794.00
452.31	38311.00
453.09	37598.00
453.87	36741.00
454.64	35807.00
455.42	34722.00
456.20	33584.00
456.98	32340.00
457.76	31054.00
458.53	29901.00
459.31	28647.00
460.09	27456.00
460.87	26473.00
461.65	25355.00
462.42	24313.00
463.20	23401.00
463.98	22592.00
464.76	21787.00
465.53	21068.00
466.31	20322.00
467.09	19704.00
467.86	19045.00
468.64	18508.00
469.42	17980.00
470.20	17478.00
470.97	16954.00
471.75	16464.00
472.53	16048.00
473.30	15562.00
474.08	15217.00
474.86	14816.00
475.63	14417.00
476.41	14117.00
477.18	13808.00
477.96	13530.00
478.74	13302.00
479.51	13101.00
480.29	12942.00
481.07	12774.00
481.84	12670.00
482.62	12576.00
483.39	12514.00
484.17	12544.00
484.94	12524.00
485.72	12509.00
486.50	12611.00
487.27	12650.00
488.05	12777.00
488.82	12917.00
489.60	13070.00
490.37	13199.00
491.15	13419.00
491.92	13626.00
492.70	13932.00
493.47	14147.00
494.25	14497.00
495.02	14789.00
495.80	15159.00
496.57	15517.00
497.35	15917.00
498.12	16411.00
498.89	16861.00
499.67	17333.00
500.44	17799.00
501.22	18346.00
501.99	18875.00
502.77	19455.00
503.54	20013.00
504.31	20581.00
505.09	21307.00
505.86	21847.00
506.63	22478.00
507.41	23199.00
508.18	23718.00
508.96	24396.00
509.73	24989.00
510.50	25637.00
511.28	26280.00
512.05	26959.00
512.82	27600.00
513.59	28165.00
514.37	28824.00
515.14	29345.00
515.91	29999.00
516.69	30605.00
517.46	31129.00
518.23	31744.00
519.00	32319.00
519.78	32847.00
520.55	33384.00
521.32	33947.00
522.09	34394.00
522.87	35014.00
523.64	35579.00
524.41	36027.00
525.18	36548.00
525.95	37052.00
526.73	37372.00
527.50	37880.00
528.27	38232.00
529.04	38723.00
529.81	39033.00
530.59	39427.00
531.36	39821.00
532.13	40157.00
532.90	40601.00
533.67	40897.00
534.44	41287.00
535.21	41491.00
535.98	41841.00
536.76	42076.00
537.53	42403.00
538.30	42584.00
539.07	42912.00
539.84	43182.00
540.61	43390.00
541.38	43597.00
542.15	43816.00
542.92	44073.00
543.69	44192.00
544.46	44414.00
545.23	44532.00
546.00	44677.00
546.77	44915.00
547.54	44985.00
548.31	45207.00
549.08	45253.00
549.85	45333.00
550.62	45469.00
551.39	45635.00
552.16	45708.00
552.93	45773.00
553.70	45976.00
554.47	45968.00
555.24	46057.00
556.01	46092.00
556.78	46147.00
557.55	46115.00
558.32	46176.00
559.09	46141.00
559.85	46180.00
560.62	46276.00
561.39	46165.00
562.16	46148.00
562.93	46259.00
563.70	46287.00
564.47	46152.00
565.23	46106.00
566.00	46111.00
566.77	46140.00
567.54	46093.00
568.31	46011.00
569.08	46006.00
569.84	45899.00
570.61	45804.00
571.38	45755.00
572.15	45661.00
572.92	45589.00
573.68	45533.00
574.45	45406.00
575.22	45299.00
575.99	45234.00
576.75	45045.00
577.52	44874.00
578.29	44779.00
579.05	44746.00
579.82	44523.00
580.59	44419.00
581.36	44192.00
582.12	43987.00
582.89	43860.00
583.66	43637.00
584.42	43459.00
585.19	43295.00
585.96	43150.00
586.72	42856.00
587.49	42666.00
588.26	42439.00
589.02	42174.00
589.79	41940.00
590.55	41641.00
591.32	41413.00
592.09	41093.00
592.85	40868.00
593.62	40520.00
594.38	40213.00
595.15	39937.00
595.91	39799.00
596.68	39465.00
597.45	39166.00
598.21	38841.00
598.98	38543.00
599.74	38334.00
600.51	38066.00
601.27	37883.00
602.04	37533.00
602.80	37176.00
603.57	36901.00
604.33	36580.00
605.10	36262.00
605.86	36060.00
606.63	35700.00
607.39	35422.00
608.15	35194.00
608.92	34777.00
609.68	34546.00
610.45	34288.00
611.21	33979.00
611.98	33725.00
612.74	33402.00
613.50	33059.00
614.27	32797.00
615.03	32507.00
615.80	32195.00
616.56	31800.00
617.32	31576.00
618.09	31260.00
618.85	31019.00
619.61	30594.00
620.38	30314.00
621.14	30068.00
621.90	29645.00
622.67	29305.00
623.43	29014.00
624.19	28709.00
624.96	28415.00
625.72	28036.00
626.48	27775.00
627.24	27379.00
628.01	27115.00
628.77	26795.00
629.53	26571.00
630.29	26210.00
631.06	25941.00
631.82	25626.00
632.58	25280.00
633.34	25011.00
634.10	24747.00
634.87	24416.00
635.63	24162.00
636.39	23867.00
637.15	23643.00
637.91	23320.00
638.68	23005.00
639.44	22740.00
640.20	22436.00
640.96	22109.00
641.72	21859.00
642.48	21643.00
643.24	21296.00
644.00	21047.00
644.77	20798.00
645.53	20479.00
646.29	20187.00
647.05	19962.00
647.81	19616.00
648.57	19442.00
649.33	19179.00
650.09	18900.00
650.85	18666.00
651.61	18402.00
652.37	18132.00
653.13	17874.00
653.89	17628.00
654.65	17387.00
655.41	17147.00
656.17	16857.00
656.93	16601.00
657.69	16378.00
658.45	16148.00
659.21	15891.00
659.97	15645.00
660.73	15360.00
661.49	15131.00
662.25	14815.00
663.01	14605.00
663.77	14345.00
664.53	14151.00
665.29	13884.00
666.05	13632.00
666.80	13421.00
667.56	13200.00
668.32	12952.00
669.08	12692.00
669.84	12494.00
670.60	12238.00
671.36	12082.00
672.11	11882.00
672.87	11667.00
673.63	11502.00
674.39	11305.00
675.15	11176.00
675.91	11005.00
676.66	10842.00
677.42	10713.00
678.18	10603.00
678.94	10483.00
679.69	10383.00
680.45	10235.00
681.21	10119.00
681.97	10077.00
682.73	9935.00
683.48	9831.00
684.24	9744.00
685.00	9652.00
685.75	9539.00
686.51	9480.00
687.27	9374.00
688.02	9295.00
688.78	9163.00
689.54	9098.00
690.30	8979.00
691.05	8907.00
691.81	8813.00
692.56	8730.00
693.32	8549.00
694.08	8541.00
694.83	8425.00
695.59	8332.00
696.35	8240.00
697.10	8140.00
697.86	8035.00
698.61	7963.00
699.37	7849.00
700.13	7757.00
700.88	7644.00
701.64	7554.00
702.39	7453.00
703.15	7354.00
703.90	7261.00
704.66	7172.00
705.41	7084.00
706.17	7047.00
706.92	6920.00
707.68	6832.00
708.43	6749.00
709.19	6687.00
709.94	6623.00
710.70	6542.00
711.45	6455.00
712.21	6397.00
712.96	6293.00
713.72	6219.00
714.47	6140.00
715.22	6062.00
715.98	6006.00
716.73	5933.00
717.49	5850.00
718.24	5752.00
718.99	5706.00
719.75	5620.00
720.50	5565.00
721.26	5504.00
722.01	5445.00
722.76	5364.00
723.52	5324.00
724.27	5248.00
725.02	5209.00
725.78	5153.00
726.53	5102.00
727.28	5045.00
728.03	5015.00
728.79	4955.00
729.54	4907.00
730.29	4873.00
731.05	4819.00
731.80	4780.00
732.55	4738.00
733.30	4711.00
734.06	4656.00
734.81	4618.00
735.56	4572.00
736.31	4541.00
737.06	4506.00
737.82	4458.00
738.57	4420.00
739.32	4382.00
740.07	4345.00
740.82	4321.00
741.58	4301.00
742.33	4264.00
743.08	4226.00
743.83	4194.00
744.58	4161.00
745.33	4127.00
746.08	4100.00
746.84	4070.00
747.59	4057.00
748.34	4001.00
749.09	3981.00
749.84	3949.00
750.59	3925.00
751.34	3883.00
752.09	3885.00
752.84	3844.00
753.59	3815.00
754.34	3800.00
755.09	3754.00
755.84	3748.00
756.59	3715.00
757.34	3683.00
758.09	3676.00
758.84	3661.00
759.59	3617.00
760.34	3619.00
761.09	3580.00
761.84	3553.00
762.59	3547.00
763.34	3526.00
764.09	3523.00
764.84	3503.00
765.59	3467.00
766.34	3454.00
767.09	3446.00
767.84	3413.00
768.58	3395.00
769.33	3387.00
770.08	3348.00
770.83	3351.00
771.58	3342.00
772.33	3328.00
773.08	3308.00
773.83	3293.00
774.57	3277.00
775.32	3262.00
776.07	3245.00
776.82	3221.00
777.57	3210.00
778.31	3197.00
779.06	3186.00
779.81	3174.00
780.56	3153.00
781.31	3141.00
782.05	3132.00
782.80	3127.00
783.55	3096.00
784.30	3103.00
785.04	3088.00
785.79	3060.00
786.54	3055.00
787.28	3054.00
788.03	3037.00
788.78	3030.00
789.52	3020.00
790.27	3008.00
791.02	2995.00
791.76	2989.00
792.51	2980.00
793.26	2973.00
794.00	2959.00
794.75	2950.00
795.50	2939.00
796.24	2936.00
796.99	2921.00
797.73	2914.00
798.48	2902.00
799.23	2903.00
799.97	2895.00
800.72	2876.00
801.46	2887.00
802.21	2866.00
802.95	2859.00
803.70	2855.00
804.45	2850.00
805.19	2848.00
805.94	2831.00
806.68	2828.00
807.43	2817.00
808.17	2820.00
808.92	2813.00
809.66	2803.00
810.40	2809.00
811.15	2806.00
811.89	2790.00
812.64	2795.00
813.38	2775.00
814.13	2780.00
814.87	2771.00
815.62	2767.00
816.36	2763.00
817.10	2750.00
817.85	2751.00
818.59	2746.00
819.34	2741.00
820.08	2737.00
820.82	2726.00
821.57	2726.00
822.31	2721.00
823.05	2727.00
823.80	2718.00
824.54	2715.00
825.28	2709.00
826.03	2710.00
826.77	2697.00
827.51	2691.00
828.25	2691.00
829.00	2692.00
829.74	2686.00
830.48	2669.00
831.23	2676.00
831.97	2676.00
832.71	2673.00
833.45	2669.00
834.19	2674.00
834.94	2665.00
835.68	2657.00
836.42	2666.00
837.16	2650.00
837.90	2658.00
838.65	2655.00
839.39	2650.00
840.13	2649.00
840.87	2645.00
841.61	2638.00
842.35	2642.00
843.10	2632.00
843.84	2633.00
844.58	2633.00
845.32	2633.00
846.06	2629.00
846.80	2632.00
847.54	2621.00
848.28	2623.00
849.02	2624.00
849.76	2617.00
850.50	2609.00
851.24	2619.00
851.99	2608.00
852.73	2613.00
853.47	2608.00
854.21	2612.00
854.95	2607.00
855.69	2612.00
856.43	2604.00
857.17	2601.00
857.91	2593.00
858.64	2603.00
859.38	2591.00
860.12	2598.00
860.86	2599.00
861.60	2592.00
862.34	2586.00
863.08	2579.00
863.82	2588.00
864.56	2586.00
865.30	2588.00
866.04	2594.00
866.78	2581.00
867.52	2580.00
868.25	2577.00
868.99	2575.00
869.73	2580.00
870.47	2572.00
871.21	2580.00
871.95	2574.00
872.68	2583.00
873.42	2571.00
874.16	2573.00
874.90	2567.00
875.64	2566.00
876.37	2578.00
877.11	2569.00
877.85	2570.00
878.59	2566.00
879.32	2564.00
880.06	2561.00
880.80	2571.00
881.54	2571.00
882.27	2561.00
883.01	2560.00
883.75	2567.00
884.48	2559.00
885.22	2565.00
885.96	2564.00
886.70	2557.00
887.43	2556.00
888.17	2562.00
888.90	2555.00
889.64	2559.00
890.38	2557.00
891.11	2563.00
891.85	2553.00
892.59	2554.00
893.32	2557.00
894.06	2552.00
894.79	2549.00
895.53	2551.00
896.27	2555.00
897.00	2554.00
897.74	2554.00
898.47	2551.00
899.21	2557.00
899.94	2551.00
900.68	2551.00
901.41	2547.00
902.15	2551.00
902.88	2552.00
903.62	2544.00
904.35	2545.00
905.09	2567.00
905.82	2548.00
906.56	2549.00
907.29	2549.00
908.03	2543.00
908.76	2541.00
909.49	2543.00
910.23	2543.00
910.96	2540.00
911.70	2549.00
912.43	2541.00
913.16	2544.00
913.90	2542.00
914.63	2553.00
915.37	2542.00
916.10	2540.00
916.83	2546.00
917.57	2543.00
918.30	2537.00
919.03	2543.00
919.77	2544.00
920.50	2546.00
921.23	2543.00
921.97	2547.00
922.70	2542.00
923.43	2550.00
924.16	2545.00
924.90	2536.00
925.63	2540.00
926.36	2542.00
927.09	2550.00
927.83	2541.00
928.56	2544.00
929.29	2539.00
930.02	2550.00
930.75	2541.00
931.49	2546.00
932.22	2541.00
932.95	2550.00
933.68	2538.00
934.41	2542.00
935.14	2535.00
935.88	2541.00
936.61	2545.00
937.34	2540.00
938.07	2542.00
938.80	2534.00
939.53	2537.00
940.26	2539.00
940.99	2545.00
941.72	2543.00
942.46	2532.00
943.19	2541.00
943.92	2536.00
944.65	2531.00
945.38	2542.00
946.11	2540.00
946.84	2541.00
947.57	2540.00
948.30	2542.00
949.03	2536.00
949.76	2539.00
950.49	2538.00
951.22	2537.00
951.95	2536.00
952.68	2534.00
953.41	2534.00
954.14	2536.00
954.86	2529.00
955.59	2531.00
956.32	2536.00
957.05	2534.00
957.78	2535.00
958.51	2542.00
959.24	2535.00
959.97	2533.00
960.70	2532.00
961.43	2533.00
962.15	2534.00
962.88	2532.00
963.61	2530.00
964.34	2532.00
965.07	2536.00
965.80	2529.00
966.52	2534.00
967.25	2530.00
967.98	2536.00
968.71	2532.00
969.43	2526.00
970.16	2532.00
970.89	2527.00
971.62	2530.00
972.34	2526.00
973.07	2527.00
973.80	2529.00
974.53	2525.00
975.25	2534.00
975.98	2533.00
976.71	2528.00
977.43	2525.00
978.16	2526.00
978.89	2518.00
979.61	2520.00
980.34	2525.00
981.07	2530.00
981.79	2530.00
982.52	2531.00
983.25	2533.00
983.97	2523.00
984.70	2519.00
985.42	2531.00
986.15	2523.00
986.88	2528.00
987.60	2525.00
988.33	2520.00
989.05	2526.00
989.78	2525.00
990.50	2528.00
991.23	2528.00
991.95	2533.00
992.68	2527.00
993.40	2528.00
994.13	2534.00
994.85	2528.00
995.58	2532.00
996.30	2529.00
997.03	2528.00
997.75	2532.00
998.48	2525.00
999.20	2534.00
999.93	2531.00
1000.65	2526.00
1001.38	2527.00
1002.10	2525.00
1002.82	2519.00
1003.55	2526.00
1004.27	2521.00
1004.99	2528.00
1005.72	2528.00
1006.44	2519.00
1007.17	2524.00
1007.89	2523.00
1008.61	2529.00
1009.34	2529.00
1010.06	2521.00
1010.78	2524.00
1011.51	2522.00
1012.23	2531.00
1012.95	2524.00
1013.67	2526.00
1014.40	2527.00
1015.12	2526.00
1015.84	2528.00
1016.56	2525.00
1017.29	2520.00
1018.01	2528.00
1018.73	2531.00
1019.45	2523.00
1020.18	2524.00
1020.90	2533.00
1021.62	2523.00
1022.34	2528.00
1023.06	2531.00
1023.78	2537.00
1024.51	2525.00
1025.23	2525.00
1025.95	2527.00
1026.67	2533.00
1027.39	2528.00
1028.11	2526.00
1028.83	2525.00
1029.55	2524.00
1030.28	2532.00
1031.00	2522.00
1031.72	2530.00
1032.44	2531.00
1033.16	2526.00
1033.88	2532.00
1034.60	2538.00
1035.32	2526.00
1036.04	2536.00
1036.76	2532.00
1037.48	2529.00
1038.20	2529.00
1038.92	2524.00
1039.64	2530.00
1040.36	2527.00
1041.08	2531.00
1041.80	2536.00
1042.52	2524.00
1043.24	2529.00
1043.96	2530.00
1044.68	2533.00
1045.40	2534.00
1046.11	2530.00
1046.83	2525.00
1047.55	2535.00
1048.27	2534.00
1048.99	2537.00
1049.71	2531.00
1050.43	2533.00
1051.15	2525.00
1051.86	2547.00
1052.58	2531.00
1053.30	2537.00
1054.02	2535.00
1054.74	2539.00
1055.45	2546.00
1056.17	2538.00
1056.89	2523.00
1057.61	2532.00
1058.33	2539.00
1059.04	2538.00
1059.76	2535.00
1060.48	2529.00
1061.20	2536.00
1061.91	2536.00
1062.63	2533.00
1063.35	2531.00
1064.06	2535.00
1064.78	2530.00
1065.50	2537.00
1066.22	2535.00
1066.93	2533.00
1067.65	2538.00
1068.36	2531.00
1069.08	2534.00
1069.80	2537.00
1070.51	2535.00
1071.23	2540.00
1071.95	2545.00
1072.66	2543.00
1073.38	2544.00
1074.09	2541.00
1074.81	2539.00
1075.53	2540.00
1076.24	2544.00
1076.96	2544.00
1077.67	2550.00
1078.39	2549.00
1079.10	2548.00
1079.82	2550.00
1080.53	2550.00
1081.25	2554.00
1081.96	2554.00
1082.68	2551.00
1083.39	2550.00
1084.11	2552.00
1084.82	2546.00
1085.54	2559.00
1086.25	2556.00
1086.97	2555.00
1087.68	2561.00
1088.39	2558.00
1089.11	2570.00
1089.82	2556.00
1090.54	2565.00
1091.25	2562.00
1091.96	2562.00
1092.68	2569.00
1093.39	2568.00
1094.10	2565.00
1094.82	2565.00
1095.53	2567.00
1096.24	2572.00
1096.96	2564.00
1097.67	2566.00
1098.38	2560.00
1099.10	2561.00
1099.81	2574.00
1100.52	2564.00
1101.23	2569.00
1101.95	2576.00
1102.66	2558.00
1103.37	2563.00
1104.08	2566.00
1104.80	2567.00
1105.51	2569.00
1106.22	2577.00
1106.93	2562.00
1107.64	2559.00
1108.36	2579.00
1109.07	2561.00
1109.78	2559.00
1110.49	2560.00
1111.20	2564.00
1111.91	2565.00
1112.63	2562.00
1113.34	2563.00
1114.05	2565.00
1114.76	2561.00
1115.47	2562.00
1116.18	2569.00
1116.89	2486.00
1117.60	2477.00
1118.31	2477.00
1119.02	2479.00
1119.73	2546.00
1120.44	2547.00
1121.16	2539.00
1121.87	2539.00
1122.58	2547.00
1123.29	2539.00
1124.00	2562.00
1124.71	2559.00
1125.42	2572.00
1126.12	2571.00
1126.83	2561.00
1127.54	2563.00
1128.25	2483.00
1128.96	2483.00
1129.67	2486.00
1130.38	2502.00