SpectraSuite Data File
++++++++++++++++++++++++++++++++++++
Date: Sat Dec 14 18:59:18 CET 2019
User: fiberoptics
Dark Spectrum Present: No
Reference Spectrum Present: No
Number of Sampled Component Spectra: 1
Spectrometers: QEPB0198
Integration Time (usec): 100000 (QEPB0198)
Spectra Averaged: 1 (QEPB0198)
Boxcar Smoothing: 0 (QEPB0198)
Correct for Electrical Dark: No (QEPB0198)
Strobe/Lamp Enabled: No (QEPB0198)
Correct for Detector Non-linearity: No (QEPB0198)
Correct for Stray Light: No (QEPB0198)
Number of Pixels in Processed Spectrum: 1044
>>>>>Begin Processed Spectral Data<<<<<
348.19	2544.00
348.97	2538.00
349.76	2545.00
350.55	2538.00
351.34	2535.00
352.12	2542.00
352.91	2549.00
353.70	2542.00
354.48	2537.00
355.27	2539.00
356.06	2549.00
356.84	2545.00
357.63	2545.00
358.42	2550.00
359.20	2554.00
359.99	2557.00
360.77	2542.00
361.56	2540.00
362.35	2547.00
363.13	2547.00
363.92	2548.00
364.70	2547.00
365.49	2544.00
366.28	2551.00
367.06	2548.00
367.85	2556.00
368.63	2552.00
369.42	2555.00
370.20	2557.00
370.99	2555.00
371.77	2557.00
372.56	2552.00
373.35	2559.00
374.13	2567.00
374.92	2560.00
375.70	2561.00
376.49	2566.00
377.27	2572.00
378.06	2570.00
378.84	2578.00
379.62	2576.00
380.41	2583.00
381.19	2585.00
381.98	2597.00
382.76	2588.00
383.55	2592.00
384.33	2602.00
385.12	2611.00
385.90	2620.00
386.68	2631.00
387.47	2620.00
388.25	2637.00
389.04	2642.00
389.82	2655.00
390.60	2663.00
391.39	2661.00
392.17	2675.00
392.95	2688.00
393.74	2702.00
394.52	2705.00
395.30	2721.00
396.09	2731.00
396.87	2751.00
397.65	2770.00
398.44	2788.00
399.22	2812.00
400.00	2845.00
400.79	2873.00
401.57	2909.00
402.35	2947.00
403.13	2994.00
403.92	3059.00
404.70	3109.00
405.48	3184.00
406.26	3277.00
407.05	3357.00
407.83	3488.00
408.61	3614.00
409.39	3759.00
410.18	3921.00
410.96	4103.00
411.74	4319.00
412.52	4555.00
413.30	4779.00
414.08	5051.00
414.87	5362.00
415.65	5722.00
416.43	6064.00
417.21	6441.00
417.99	6894.00
418.77	7367.00
419.56	7854.00
420.34	8355.00
421.12	8933.00
421.90	9558.00
422.68	10179.00
423.46	10832.00
424.24	11537.00
425.02	12248.00
425.80	12990.00
426.58	13758.00
427.36	14504.00
428.14	15302.00
428.93	16138.00
429.71	16962.00
430.49	17835.00
431.27	18602.00
432.05	19448.00
432.83	20251.00
433.61	21020.00
434.39	21805.00
435.17	22591.00
435.95	23297.00
436.73	23995.00
437.51	24766.00
438.29	25369.00
439.07	26120.00
439.85	26675.00
440.62	27291.00
441.40	27939.00
442.18	28541.00
442.96	29130.00
443.74	29675.00
444.52	30251.00
445.30	30812.00
446.08	31307.00
446.86	31566.00
447.64	31953.00
448.42	32125.00
449.19	32362.00
449.97	32229.00
450.75	32082.00
451.53	31871.00
452.31	31384.00
453.09	30861.00
453.87	30137.00
454.64	29372.00
455.42	28453.00
456.20	27579.00
456.98	26678.00
457.76	25709.00
458.53	24718.00
459.31	23727.00
460.09	22770.00
460.87	21931.00
461.65	21029.00
462.42	20247.00
463.20	19522.00
463.98	18871.00
464.76	18236.00
465.53	17642.00
466.31	17071.00
467.09	16536.00
467.86	16064.00
468.64	15606.00
469.42	15134.00
470.20	14755.00
470.97	14327.00
471.75	13980.00
472.53	13624.00
473.30	13257.00
474.08	12938.00
474.86	12612.00
475.63	12318.00
476.41	12064.00
477.18	11821.00
477.96	11602.00
478.74	11387.00
479.51	11263.00
480.29	11118.00
481.07	10975.00
481.84	10907.00
482.62	10849.00
483.39	10790.00
484.17	10790.00
484.94	10792.00
485.72	10823.00
486.50	10880.00
487.27	10939.00
488.05	10987.00
488.82	11107.00
489.60	11250.00
490.37	11405.00
491.15	11596.00
491.92	11749.00
492.70	11973.00
493.47	12194.00
494.25	12479.00
495.02	12740.00
495.80	13039.00
496.57	13387.00
497.35	13713.00
498.12	14083.00
498.89	14475.00
499.67	14846.00
500.44	15272.00
501.22	15743.00
501.99	16134.00
502.77	16683.00
503.54	17179.00
504.31	17611.00
505.09	18121.00
505.86	18609.00
506.63	19197.00
507.41	19737.00
508.18	20269.00
508.96	20796.00
509.73	21341.00
510.50	21886.00
511.28	22419.00
512.05	23021.00
512.82	23447.00
513.59	24041.00
514.37	24498.00
515.14	25061.00
515.91	25510.00
516.69	26066.00
517.46	26554.00
518.23	26983.00
519.00	27475.00
519.78	27924.00
520.55	28386.00
521.32	28873.00
522.09	29280.00
522.87	29751.00
523.64	30292.00
524.41	30620.00
525.18	31126.00
525.95	31470.00
526.73	31915.00
527.50	32325.00
528.27	32640.00
529.04	33014.00
529.81	33385.00
530.59	33608.00
531.36	34007.00
532.13	34273.00
532.90	34687.00
533.67	34966.00
534.44	35246.00
535.21	35461.00
535.98	35728.00
536.76	36001.00
537.53	36215.00
538.30	36557.00
539.07	36709.00
539.84	36901.00
540.61	37138.00
541.38	37303.00
542.15	37562.00
542.92	37664.00
543.69	37881.00
544.46	38091.00
545.23	38184.00
546.00	38352.00
546.77	38543.00
547.54	38657.00
548.31	38690.00
549.08	38967.00
549.85	38986.00
550.62	39087.00
551.39	39287.00
552.16	39357.00
552.93	39367.00
553.70	39517.00
554.47	39609.00
555.24	39665.00
556.01	39742.00
556.78	39719.00
557.55	39769.00
558.32	39826.00
559.09	39816.00
559.85	39843.00
560.62	39942.00
561.39	39915.00
562.16	39912.00
562.93	39854.00
563.70	39939.00
564.47	39837.00
565.23	39857.00
566.00	39878.00
566.77	39921.00
567.54	39850.00
568.31	39886.00
569.08	39779.00
569.84	39770.00
570.61	39692.00
571.38	39640.00
572.15	39592.00
572.92	39636.00
573.68	39409.00
574.45	39413.00
575.22	39380.00
575.99	39183.00
576.75	39114.00
577.52	39009.00
578.29	38897.00
579.05	38865.00
579.82	38727.00
580.59	38580.00
581.36	38400.00
582.12	38328.00
582.89	38192.00
583.66	37969.00
584.42	37898.00
585.19	37670.00
585.96	37441.00
586.72	37312.00
587.49	37130.00
588.26	36843.00
589.02	36774.00
589.79	36519.00
590.55	36301.00
591.32	35979.00
592.09	35834.00
592.85	35622.00
593.62	35411.00
594.38	35111.00
595.15	34916.00
595.91	34712.00
596.68	34434.00
597.45	34217.00
598.21	34064.00
598.98	33643.00
599.74	33519.00
600.51	33344.00
601.27	33013.00
602.04	32847.00
602.80	32536.00
603.57	32295.00
604.33	32065.00
605.10	31864.00
605.86	31560.00
606.63	31383.00
607.39	31051.00
608.15	30822.00
608.92	30538.00
609.68	30268.00
610.45	30143.00
611.21	29826.00
611.98	29598.00
612.74	29356.00
613.50	29072.00
614.27	28804.00
615.03	28590.00
615.80	28325.00
616.56	28049.00
617.32	27787.00
618.09	27559.00
618.85	27259.00
619.61	27014.00
620.38	26729.00
621.14	26485.00
621.90	26245.00
622.67	25920.00
623.43	25583.00
624.19	25324.00
624.96	25070.00
625.72	24840.00
626.48	24522.00
627.24	24254.00
628.01	24075.00
628.77	23741.00
629.53	23538.00
630.29	23226.00
631.06	22964.00
631.82	22767.00
632.58	22450.00
633.34	22261.00
634.10	22031.00
634.87	21696.00
635.63	21467.00
636.39	21198.00
637.15	20986.00
637.91	20770.00
638.68	20584.00
639.44	20276.00
640.20	20062.00
640.96	19798.00
641.72	19535.00
642.48	19292.00
643.24	19079.00
644.00	18805.00
644.77	18537.00
645.53	18358.00
646.29	18161.00
647.05	17920.00
647.81	17673.00
648.57	17417.00
649.33	17188.00
650.09	16999.00
650.85	16776.00
651.61	16546.00
652.37	16279.00
653.13	16098.00
653.89	15828.00
654.65	15612.00
655.41	15377.00
656.17	15248.00
656.93	14980.00
657.69	14795.00
658.45	14554.00
659.21	14354.00
659.97	14080.00
660.73	13882.00
661.49	13646.00
662.25	13411.00
663.01	13241.00
663.77	13009.00
664.53	12827.00
665.29	12604.00
666.05	12385.00
666.80	12192.00
667.56	11989.00
668.32	11750.00
669.08	11524.00
669.84	11393.00
670.60	11163.00
671.36	11015.00
672.11	10829.00
672.87	10702.00
673.63	10525.00
674.39	10374.00
675.15	10221.00
675.91	10074.00
676.66	9944.00
677.42	9822.00
678.18	9751.00
678.94	9608.00
679.69	9519.00
680.45	9406.00
681.21	9321.00
681.97	9198.00
682.73	9111.00
683.48	9061.00
684.24	8971.00
685.00	8891.00
685.75	8783.00
686.51	8730.00
687.27	8642.00
688.02	8560.00
688.78	8492.00
689.54	8395.00
690.30	8313.00
691.05	8267.00
691.81	8135.00
692.56	8057.00
693.32	7990.00
694.08	7894.00
694.83	7817.00
695.59	7723.00
696.35	7632.00
697.10	7582.00
697.86	7492.00
698.61	7399.00
699.37	7307.00
700.13	7253.00
700.88	7121.00
701.64	7056.00
702.39	6999.00
703.15	6920.00
703.90	6809.00
704.66	6731.00
705.41	6652.00
706.17	6561.00
706.92	6538.00
707.68	6442.00
708.43	6346.00
709.19	6289.00
709.94	6238.00
710.70	6152.00
711.45	6104.00
712.21	6003.00
712.96	5955.00
713.72	5881.00
714.47	5804.00
715.22	5705.00
715.98	5675.00
716.73	5602.00
717.49	5547.00
718.24	5470.00
718.99	5417.00
719.75	5329.00
720.50	5285.00
721.26	5206.00
722.01	5164.00
722.76	5147.00
723.52	5064.00
724.27	5004.00
725.02	4948.00
725.78	4918.00
726.53	4871.00
727.28	4816.00
728.03	4809.00
728.79	4739.00
729.54	4701.00
730.29	4666.00
731.05	4608.00
731.80	4589.00
732.55	4533.00
733.30	4539.00
734.06	4467.00
734.81	4423.00
735.56	4405.00
736.31	4345.00
737.06	4324.00
737.82	4297.00
738.57	4265.00
739.32	4236.00
740.07	4176.00
740.82	4162.00
741.58	4147.00
742.33	4091.00
743.08	4073.00
743.83	4044.00
744.58	4006.00
745.33	3974.00
746.08	3961.00
746.84	3946.00
747.59	3917.00
748.34	3876.00
749.09	3869.00
749.84	3830.00
750.59	3796.00
751.34	3784.00
752.09	3742.00
752.84	3740.00
753.59	3705.00
754.34	3698.00
755.09	3654.00
755.84	3639.00
756.59	3617.00
757.34	3608.00
758.09	3583.00
758.84	3561.00
759.59	3555.00
760.34	3509.00
761.09	3493.00
761.84	3482.00
762.59	3464.00
763.34	3462.00
764.09	3429.00
764.84	3420.00
765.59	3397.00
766.34	3380.00
767.09	3361.00
767.84	3348.00
768.58	3323.00
769.33	3317.00
770.08	3294.00
770.83	3278.00
771.58	3274.00
772.33	3261.00
773.08	3231.00
773.83	3233.00
774.57	3206.00
775.32	3198.00
776.07	3193.00
776.82	3152.00
777.57	3153.00
778.31	3138.00
779.06	3131.00
779.81	3114.00
780.56	3109.00
781.31	3087.00
782.05	3081.00
782.80	3067.00
783.55	3055.00
784.30	3054.00
785.04	3036.00
785.79	3019.00
786.54	3017.00
787.28	3011.00
788.03	2990.00
788.78	2990.00
789.52	2979.00
790.27	2969.00
791.02	2960.00
791.76	2951.00
792.51	2944.00
793.26	2931.00
794.00	2922.00
794.75	2926.00
795.50	2913.00
796.24	2900.00
796.99	2896.00
797.73	2878.00
798.48	2883.00
799.23	2868.00
799.97	2867.00
800.72	2854.00
801.46	2854.00
802.21	2845.00
802.95	2834.00
803.70	2836.00
804.45	2825.00
805.19	2829.00
805.94	2808.00
806.68	2807.00
807.43	2805.00
808.17	2792.00
808.92	2791.00
809.66	2786.00
810.40	2785.00
811.15	2781.00
811.89	2777.00
812.64	2768.00
813.38	2749.00
814.13	2763.00
814.87	2753.00
815.62	2749.00
816.36	2743.00
817.10	2740.00
817.85	2736.00
818.59	2735.00
819.34	2729.00
820.08	2725.00
820.82	2712.00
821.57	2707.00
822.31	2705.00
823.05	2711.00
823.80	2704.00
824.54	2704.00
825.28	2693.00
826.03	2694.00
826.77	2694.00
827.51	2679.00
828.25	2685.00
829.00	2683.00
829.74	2676.00
830.48	2665.00
831.23	2669.00
831.97	2659.00
832.71	2661.00
833.45	2657.00
834.19	2657.00
834.94	2660.00
835.68	2654.00
836.42	2661.00
837.16	2648.00
837.90	2649.00
838.65	2650.00
839.39	2647.00
840.13	2642.00
840.87	2637.00
841.61	2631.00
842.35	2640.00
843.10	2634.00
843.84	2630.00
844.58	2633.00
845.32	2627.00
846.06	2624.00
846.80	2632.00
847.54	2619.00
848.28	2623.00
849.02	2617.00
849.76	2610.00
850.50	2610.00
851.24	2610.00
851.99	2610.00
852.73	2610.00
853.47	2608.00
854.21	2605.00
854.95	2611.00
855.69	2606.00
856.43	2601.00
857.17	2600.00
857.91	2601.00
858.64	2596.00
859.38	2588.00
860.12	2598.00
860.86	2593.00
861.60	2588.00
862.34	2580.00
863.08	2576.00
863.82	2587.00
864.56	2589.00
865.30	2595.00
866.04	2587.00
866.78	2578.00
867.52	2579.00
868.25	2579.00
868.99	2575.00
869.73	2581.00
870.47	2571.00
871.21	2577.00
871.95	2570.00
872.68	2586.00
873.42	2570.00
874.16	2571.00
874.90	2574.00
875.64	2562.00
876.37	2571.00
877.11	2567.00
877.85	2568.00
878.59	2567.00
879.32	2561.00
880.06	2564.00
880.80	2568.00
881.54	2568.00
882.27	2561.00
883.01	2559.00
883.75	2561.00
884.48	2563.00
885.22	2561.00
885.96	2565.00
886.70	2553.00
887.43	2559.00
888.17	2560.00
888.90	2552.00
889.64	2561.00
890.38	2562.00
891.11	2562.00
891.85	2562.00
892.59	2553.00
893.32	2560.00
894.06	2553.00
894.79	2551.00
895.53	2553.00
896.27	2556.00
897.00	2551.00
897.74	2556.00
898.47	2553.00
899.21	2555.00
899.94	2554.00
900.68	2555.00
901.41	2546.00
902.15	2560.00
902.88	2550.00
903.62	2546.00
904.35	2548.00
905.09	2570.00
905.82	2546.00
906.56	2553.00
907.29	2551.00
908.03	2543.00
908.76	2541.00
909.49	2544.00
910.23	2538.00
910.96	2539.00
911.70	2551.00
912.43	2539.00
913.16	2548.00
913.90	2541.00
914.63	2549.00
915.37	2545.00
916.10	2543.00
916.83	2548.00
917.57	2545.00
918.30	2541.00
919.03	2547.00
919.77	2544.00
920.50	2542.00
921.23	2549.00
921.97	2547.00
922.70	2546.00
923.43	2546.00
924.16	2544.00
924.90	2537.00
925.63	2541.00
926.36	2538.00
927.09	2552.00
927.83	2539.00
928.56	2547.00
929.29	2538.00
930.02	2555.00
930.75	2541.00
931.49	2552.00
932.22	2541.00
932.95	2551.00
933.68	2538.00
934.41	2544.00
935.14	2538.00
935.88	2543.00
936.61	2545.00
937.34	2544.00
938.07	2547.00
938.80	2540.00
939.53	2544.00
940.26	2543.00
940.99	2546.00
941.72	2543.00
942.46	2542.00
943.19	2541.00
943.92	2537.00
944.65	2536.00
945.38	2541.00
946.11	2538.00
946.84	2545.00
947.57	2547.00
948.30	2541.00
949.03	2538.00
949.76	2535.00
950.49	2544.00
951.22	2539.00
951.95	2541.00
952.68	2536.00
953.41	2539.00
954.14	2540.00
954.86	2537.00
955.59	2538.00
956.32	2544.00
957.05	2535.00
957.78	2544.00
958.51	2543.00
959.24	2538.00
959.97	2536.00
960.70	2539.00
961.43	2532.00
962.15	2535.00
962.88	2538.00
963.61	2535.00
964.34	2537.00
965.07	2539.00
965.80	2532.00
966.52	2537.00
967.25	2534.00
967.98	2534.00
968.71	2530.00
969.43	2533.00
970.16	2532.00
970.89	2533.00
971.62	2529.00
972.34	2531.00
973.07	2530.00
973.80	2534.00
974.53	2526.00
975.25	2534.00
975.98	2532.00
976.71	2535.00
977.43	2525.00
978.16	2528.00
978.89	2520.00
979.61	2528.00
980.34	2528.00
981.07	2532.00
981.79	2528.00
982.52	2532.00
983.25	2532.00
983.97	2531.00
984.70	2524.00
985.42	2533.00
986.15	2525.00
986.88	2531.00
987.60	2527.00
988.33	2529.00
989.05	2525.00
989.78	2528.00
990.50	2527.00
991.23	2530.00
991.95	2531.00
992.68	2531.00
993.40	2535.00
994.13	2534.00
994.85	2530.00
995.58	2533.00
996.30	2526.00
997.03	2529.00
997.75	2533.00
998.48	2529.00
999.20	2537.00
999.93	2531.00
1000.65	2532.00
1001.38	2526.00
1002.10	2532.00
1002.82	2523.00
1003.55	2529.00
1004.27	2528.00
1004.99	2528.00
1005.72	2525.00
1006.44	2526.00
1007.17	2529.00
1007.89	2522.00
1008.61	2529.00
1009.34	2531.00
1010.06	2526.00
1010.78	2526.00
1011.51	2524.00
1012.23	2535.00
1012.95	2526.00
1013.67	2523.00
1014.40	2529.00
1015.12	2530.00
1015.84	2533.00
1016.56	2531.00
1017.29	2530.00
1018.01	2529.00
1018.73	2534.00
1019.45	2530.00
1020.18	2525.00
1020.90	2537.00
1021.62	2531.00
1022.34	2528.00
1023.06	2533.00
1023.78	2541.00
1024.51	2525.00
1025.23	2521.00
1025.95	2530.00
1026.67	2532.00
1027.39	2528.00
1028.11	2534.00
1028.83	2531.00
1029.55	2524.00
1030.28	2532.00
1031.00	2526.00
1031.72	2532.00
1032.44	2530.00
1033.16	2529.00
1033.88	2536.00
1034.60	2534.00
1035.32	2528.00
1036.04	2538.00
1036.76	2535.00
1037.48	2527.00
1038.20	2529.00
1038.92	2531.00
1039.64	2534.00
1040.36	2528.00
1041.08	2533.00
1041.80	2536.00
1042.52	2529.00
1043.24	2529.00
1043.96	2531.00
1044.68	2535.00
1045.40	2536.00
1046.11	2541.00
1046.83	2531.00
1047.55	2534.00
1048.27	2532.00
1048.99	2532.00
1049.71	2535.00
1050.43	2534.00
1051.15	2526.00
1051.86	2549.00
1052.58	2532.00
1053.30	2541.00
1054.02	2532.00
1054.74	2539.00
1055.45	2543.00
1056.17	2537.00
1056.89	2530.00
1057.61	2533.00
1058.33	2533.00
1059.04	2543.00
1059.76	2536.00
1060.48	2526.00
1061.20	2528.00
1061.91	2538.00
1062.63	2534.00
1063.35	2534.00
1064.06	2537.00
1064.78	2536.00
1065.50	2541.00
1066.22	2539.00
1066.93	2536.00
1067.65	2538.00
1068.36	2538.00
1069.08	2536.00
1069.80	2535.00
1070.51	2535.00
1071.23	2539.00
1071.95	2540.00
1072.66	2542.00
1073.38	2543.00
1074.09	2536.00
1074.81	2537.00
1075.53	2538.00
1076.24	2543.00
1076.96	2549.00
1077.67	2544.00
1078.39	2549.00
1079.10	2545.00
1079.82	2550.00
1080.53	2546.00
1081.25	2546.00
1081.96	2554.00
1082.68	2548.00
1083.39	2549.00
1084.11	2548.00
1084.82	2545.00
1085.54	2555.00
1086.25	2557.00
1086.97	2549.00
1087.68	2560.00
1088.39	2556.00
1089.11	2563.00
1089.82	2556.00
1090.54	2560.00
1091.25	2555.00
1091.96	2557.00
1092.68	2565.00
1093.39	2568.00
1094.10	2561.00
1094.82	2564.00
1095.53	2560.00
1096.24	2565.00
1096.96	2560.00
1097.67	2563.00
1098.38	2559.00
1099.10	2559.00
1099.81	2563.00
1100.52	2565.00
1101.23	2563.00
1101.95	2568.00
1102.66	2552.00
1103.37	2562.00
1104.08	2563.00
1104.80	2560.00
1105.51	2564.00
1106.22	2567.00
1106.93	2562.00
1107.64	2554.00
1108.36	2575.00
1109.07	2560.00
1109.78	2561.00
1110.49	2559.00
1111.20	2563.00
1111.91	2565.00
1112.63	2559.00
1113.34	2561.00
1114.05	2561.00
1114.76	2562.00
1115.47	2562.00
1116.18	2561.00
1116.89	2486.00
1117.60	2479.00
1118.31	2477.00
1119.02	2479.00
1119.73	2539.00
1120.44	2541.00
1121.16	2539.00
1121.87	2537.00
1122.58	2540.00
1123.29	2537.00
1124.00	2558.00
1124.71	2557.00
1125.42	2569.00
1126.12	2574.00
1126.83	2556.00
1127.54	2561.00
1128.25	2485.00
1128.96	2489.00
1129.67	2488.00
1130.38	2501.00