SpectraSuite Data File
++++++++++++++++++++++++++++++++++++
Date: Sat Dec 14 19:01:46 CET 2019
User: fiberoptics
Dark Spectrum Present: No
Reference Spectrum Present: No
Number of Sampled Component Spectra: 1
Spectrometers: QEPB0198
Integration Time (usec): 100000 (QEPB0198)
Spectra Averaged: 1 (QEPB0198)
Boxcar Smoothing: 0 (QEPB0198)
Correct for Electrical Dark: No (QEPB0198)
Strobe/Lamp Enabled: No (QEPB0198)
Correct for Detector Non-linearity: No (QEPB0198)
Correct for Stray Light: No (QEPB0198)
Number of Pixels in Processed Spectrum: 1044
>>>>>Begin Processed Spectral Data<<<<<
348.19	2547.00
348.97	2538.00
349.76	2548.00
350.55	2547.00
351.34	2539.00
352.12	2545.00
352.91	2547.00
353.70	2548.00
354.48	2543.00
355.27	2542.00
356.06	2552.00
356.84	2545.00
357.63	2553.00
358.42	2551.00
359.20	2561.00
359.99	2555.00
360.77	2550.00
361.56	2548.00
362.35	2551.00
363.13	2553.00
363.92	2555.00
364.70	2559.00
365.49	2553.00
366.28	2552.00
367.06	2558.00
367.85	2561.00
368.63	2556.00
369.42	2559.00
370.20	2562.00
370.99	2558.00
371.77	2557.00
372.56	2559.00
373.35	2569.00
374.13	2575.00
374.92	2565.00
375.70	2571.00
376.49	2570.00
377.27	2572.00
378.06	2579.00
378.84	2585.00
379.62	2592.00
380.41	2591.00
381.19	2593.00
381.98	2605.00
382.76	2598.00
383.55	2602.00
384.33	2609.00
385.12	2617.00
385.90	2627.00
386.68	2634.00
387.47	2641.00
388.25	2650.00
389.04	2655.00
389.82	2672.00
390.60	2677.00
391.39	2678.00
392.17	2694.00
392.95	2703.00
393.74	2718.00
394.52	2724.00
395.30	2753.00
396.09	2761.00
396.87	2778.00
397.65	2802.00
398.44	2824.00
399.22	2851.00
400.00	2870.00
400.79	2916.00
401.57	2961.00
402.35	3001.00
403.13	3052.00
403.92	3127.00
404.70	3199.00
405.48	3272.00
406.26	3390.00
407.05	3494.00
407.83	3645.00
408.61	3771.00
409.39	3953.00
410.18	4152.00
410.96	4352.00
411.74	4608.00
412.52	4874.00
413.30	5170.00
414.08	5488.00
414.87	5849.00
415.65	6238.00
416.43	6689.00
417.21	7149.00
417.99	7655.00
418.77	8208.00
419.56	8792.00
420.34	9395.00
421.12	10078.00
421.90	10757.00
422.68	11466.00
423.46	12269.00
424.24	13061.00
425.02	13991.00
425.80	14854.00
426.58	15701.00
427.36	16567.00
428.14	17567.00
428.93	18547.00
429.71	19514.00
430.49	20432.00
431.27	21466.00
432.05	22406.00
432.83	23346.00
433.61	24260.00
434.39	25195.00
435.17	26082.00
435.95	26999.00
436.73	27736.00
437.51	28570.00
438.29	29376.00
439.07	30113.00
439.85	30853.00
440.62	31553.00
441.40	32287.00
442.18	33051.00
442.96	33733.00
443.74	34357.00
444.52	34970.00
445.30	35509.00
446.08	36049.00
446.86	36568.00
447.64	36914.00
448.42	37133.00
449.19	37281.00
449.97	37175.00
450.75	37052.00
451.53	36654.00
452.31	36212.00
453.09	35486.00
453.87	34704.00
454.64	33877.00
455.42	32779.00
456.20	31754.00
456.98	30634.00
457.76	29444.00
458.53	28362.00
459.31	27180.00
460.09	26058.00
460.87	25031.00
461.65	24095.00
462.42	23089.00
463.20	22203.00
463.98	21396.00
464.76	20681.00
465.53	19978.00
466.31	19340.00
467.09	18723.00
467.86	18186.00
468.64	17643.00
469.42	17082.00
470.20	16639.00
470.97	16123.00
471.75	15684.00
472.53	15289.00
473.30	14883.00
474.08	14411.00
474.86	14117.00
475.63	13722.00
476.41	13440.00
477.18	13144.00
477.96	12959.00
478.74	12698.00
479.51	12483.00
480.29	12304.00
481.07	12179.00
481.84	12087.00
482.62	12002.00
483.39	11991.00
484.17	11931.00
484.94	11931.00
485.72	11944.00
486.50	12023.00
487.27	12075.00
488.05	12119.00
488.82	12304.00
489.60	12430.00
490.37	12626.00
491.15	12802.00
491.92	13017.00
492.70	13262.00
493.47	13472.00
494.25	13753.00
495.02	14101.00
495.80	14378.00
496.57	14769.00
497.35	15151.00
498.12	15544.00
498.89	15997.00
499.67	16446.00
500.44	16949.00
501.22	17428.00
501.99	17913.00
502.77	18426.00
503.54	19000.00
504.31	19506.00
505.09	20062.00
505.86	20721.00
506.63	21225.00
507.41	21851.00
508.18	22496.00
508.96	23073.00
509.73	23641.00
510.50	24292.00
511.28	24846.00
512.05	25521.00
512.82	26045.00
513.59	26673.00
514.37	27199.00
515.14	27736.00
515.91	28256.00
516.69	28915.00
517.46	29390.00
518.23	29977.00
519.00	30475.00
519.78	31012.00
520.55	31573.00
521.32	31980.00
522.09	32506.00
522.87	33004.00
523.64	33474.00
524.41	33997.00
525.18	34445.00
525.95	34894.00
526.73	35293.00
527.50	35707.00
528.27	36112.00
529.04	36499.00
529.81	36870.00
530.59	37151.00
531.36	37557.00
532.13	37893.00
532.90	38296.00
533.67	38480.00
534.44	38883.00
535.21	39135.00
535.98	39500.00
536.76	39726.00
537.53	39939.00
538.30	40190.00
539.07	40397.00
539.84	40658.00
540.61	40834.00
541.38	41059.00
542.15	41369.00
542.92	41463.00
543.69	41671.00
544.46	41879.00
545.23	41976.00
546.00	42104.00
546.77	42321.00
547.54	42414.00
548.31	42518.00
549.08	42694.00
549.85	42857.00
550.62	42886.00
551.39	43089.00
552.16	43046.00
552.93	43160.00
553.70	43272.00
554.47	43375.00
555.24	43364.00
556.01	43379.00
556.78	43516.00
557.55	43559.00
558.32	43586.00
559.09	43573.00
559.85	43607.00
560.62	43640.00
561.39	43607.00
562.16	43516.00
562.93	43617.00
563.70	43505.00
564.47	43564.00
565.23	43592.00
566.00	43548.00
566.77	43664.00
567.54	43506.00
568.31	43460.00
569.08	43418.00
569.84	43359.00
570.61	43311.00
571.38	43197.00
572.15	43180.00
572.92	43157.00
573.68	42947.00
574.45	42919.00
575.22	42894.00
575.99	42804.00
576.75	42643.00
577.52	42519.00
578.29	42497.00
579.05	42450.00
579.82	42295.00
580.59	42097.00
581.36	42023.00
582.12	41959.00
582.89	41920.00
583.66	41702.00
584.42	41641.00
585.19	41552.00
585.96	41403.00
586.72	41330.00
587.49	41311.00
588.26	41154.00
589.02	41073.00
589.79	40960.00
590.55	40798.00
591.32	40695.00
592.09	40573.00
592.85	40439.00
593.62	40299.00
594.38	40086.00
595.15	40049.00
595.91	39770.00
596.68	39730.00
597.45	39485.00
598.21	39362.00
598.98	39195.00
599.74	39049.00
600.51	38870.00
601.27	38645.00
602.04	38429.00
602.80	38261.00
603.57	37974.00
604.33	37781.00
605.10	37548.00
605.86	37359.00
606.63	37031.00
607.39	36838.00
608.15	36528.00
608.92	36285.00
609.68	36112.00
610.45	35815.00
611.21	35601.00
611.98	35352.00
612.74	35103.00
613.50	34732.00
614.27	34498.00
615.03	34197.00
615.80	33911.00
616.56	33539.00
617.32	33237.00
618.09	32984.00
618.85	32635.00
619.61	32323.00
620.38	32016.00
621.14	31657.00
621.90	31377.00
622.67	31072.00
623.43	30721.00
624.19	30348.00
624.96	30117.00
625.72	29763.00
626.48	29351.00
627.24	29080.00
628.01	28741.00
628.77	28391.00
629.53	28072.00
630.29	27813.00
631.06	27468.00
631.82	27094.00
632.58	26843.00
633.34	26536.00
634.10	26203.00
634.87	25895.00
635.63	25566.00
636.39	25292.00
637.15	25021.00
637.91	24737.00
638.68	24391.00
639.44	24075.00
640.20	23772.00
640.96	23442.00
641.72	23125.00
642.48	22856.00
643.24	22583.00
644.00	22295.00
644.77	21973.00
645.53	21722.00
646.29	21394.00
647.05	21137.00
647.81	20820.00
648.57	20566.00
649.33	20256.00
650.09	19991.00
650.85	19740.00
651.61	19459.00
652.37	19139.00
653.13	18896.00
653.89	18608.00
654.65	18354.00
655.41	18107.00
656.17	17809.00
656.93	17576.00
657.69	17298.00
658.45	17030.00
659.21	16760.00
659.97	16467.00
660.73	16200.00
661.49	15927.00
662.25	15665.00
663.01	15370.00
663.77	15106.00
664.53	14849.00
665.29	14653.00
666.05	14367.00
666.80	14133.00
667.56	13853.00
668.32	13619.00
669.08	13339.00
669.84	13116.00
670.60	12904.00
671.36	12681.00
672.11	12486.00
672.87	12276.00
673.63	12060.00
674.39	11866.00
675.15	11706.00
675.91	11537.00
676.66	11435.00
677.42	11219.00
678.18	11140.00
678.94	10976.00
679.69	10874.00
680.45	10698.00
681.21	10642.00
681.97	10549.00
682.73	10438.00
683.48	10296.00
684.24	10180.00
685.00	10075.00
685.75	10014.00
686.51	9895.00
687.27	9792.00
688.02	9702.00
688.78	9598.00
689.54	9472.00
690.30	9387.00
691.05	9271.00
691.81	9220.00
692.56	9105.00
693.32	8985.00
694.08	8883.00
694.83	8762.00
695.59	8716.00
696.35	8587.00
697.10	8490.00
697.86	8369.00
698.61	8267.00
699.37	8175.00
700.13	8071.00
700.88	7961.00
701.64	7891.00
702.39	7758.00
703.15	7669.00
703.90	7561.00
704.66	7470.00
705.41	7414.00
706.17	7311.00
706.92	7193.00
707.68	7119.00
708.43	7035.00
709.19	6931.00
709.94	6853.00
710.70	6775.00
711.45	6674.00
712.21	6601.00
712.96	6543.00
713.72	6480.00
714.47	6377.00
715.22	6275.00
715.98	6207.00
716.73	6142.00
717.49	6054.00
718.24	5980.00
718.99	5892.00
719.75	5809.00
720.50	5746.00
721.26	5661.00
722.01	5608.00
722.76	5546.00
723.52	5468.00
724.27	5433.00
725.02	5355.00
725.78	5312.00
726.53	5278.00
727.28	5216.00
728.03	5160.00
728.79	5099.00
729.54	5051.00
730.29	5029.00
731.05	4946.00
731.80	4910.00
732.55	4852.00
733.30	4858.00
734.06	4802.00
734.81	4746.00
735.56	4705.00
736.31	4666.00
737.06	4613.00
737.82	4571.00
738.57	4541.00
739.32	4499.00
740.07	4462.00
740.82	4434.00
741.58	4407.00
742.33	4364.00
743.08	4312.00
743.83	4290.00
744.58	4261.00
745.33	4227.00
746.08	4209.00
746.84	4147.00
747.59	4134.00
748.34	4090.00
749.09	4062.00
749.84	4029.00
750.59	3995.00
751.34	3975.00
752.09	3953.00
752.84	3932.00
753.59	3881.00
754.34	3864.00
755.09	3821.00
755.84	3811.00
756.59	3796.00
757.34	3771.00
758.09	3739.00
758.84	3734.00
759.59	3699.00
760.34	3667.00
761.09	3653.00
761.84	3640.00
762.59	3610.00
763.34	3602.00
764.09	3556.00
764.84	3547.00
765.59	3531.00
766.34	3517.00
767.09	3485.00
767.84	3470.00
768.58	3459.00
769.33	3428.00
770.08	3415.00
770.83	3410.00
771.58	3394.00
772.33	3385.00
773.08	3345.00
773.83	3335.00
774.57	3323.00
775.32	3311.00
776.07	3297.00
776.82	3279.00
777.57	3249.00
778.31	3246.00
779.06	3221.00
779.81	3206.00
780.56	3185.00
781.31	3163.00
782.05	3172.00
782.80	3156.00
783.55	3134.00
784.30	3152.00
785.04	3113.00
785.79	3099.00
786.54	3098.00
787.28	3093.00
788.03	3067.00
788.78	3076.00
789.52	3048.00
790.27	3034.00
791.02	3027.00
791.76	3016.00
792.51	3013.00
793.26	2995.00
794.00	2985.00
794.75	2989.00
795.50	2963.00
796.24	2961.00
796.99	2946.00
797.73	2937.00
798.48	2942.00
799.23	2927.00
799.97	2924.00
800.72	2896.00
801.46	2915.00
802.21	2894.00
802.95	2887.00
803.70	2879.00
804.45	2873.00
805.19	2867.00
805.94	2851.00
806.68	2855.00
807.43	2851.00
808.17	2838.00
808.92	2822.00
809.66	2824.00
810.40	2824.00
811.15	2828.00
811.89	2804.00
812.64	2802.00
813.38	2799.00
814.13	2794.00
814.87	2787.00
815.62	2790.00
816.36	2778.00
817.10	2767.00
817.85	2769.00
818.59	2769.00
819.34	2756.00
820.08	2753.00
820.82	2748.00
821.57	2735.00
822.31	2738.00
823.05	2740.00
823.80	2724.00
824.54	2732.00
825.28	2723.00
826.03	2724.00
826.77	2716.00
827.51	2707.00
828.25	2707.00
829.00	2709.00
829.74	2707.00
830.48	2687.00
831.23	2691.00
831.97	2690.00
832.71	2680.00
833.45	2683.00
834.19	2675.00
834.94	2678.00
835.68	2677.00
836.42	2682.00
837.16	2668.00
837.90	2662.00
838.65	2668.00
839.39	2660.00
840.13	2656.00
840.87	2661.00
841.61	2646.00
842.35	2647.00
843.10	2645.00
843.84	2644.00
844.58	2639.00
845.32	2643.00
846.06	2637.00
846.80	2644.00
847.54	2632.00
848.28	2638.00
849.02	2632.00
849.76	2627.00
850.50	2624.00
851.24	2623.00
851.99	2614.00
852.73	2626.00
853.47	2614.00
854.21	2617.00
854.95	2615.00
855.69	2616.00
856.43	2611.00
857.17	2609.00
857.91	2605.00
858.64	2608.00
859.38	2599.00
860.12	2607.00
860.86	2607.00
861.60	2602.00
862.34	2594.00
863.08	2590.00
863.82	2596.00
864.56	2597.00
865.30	2600.00
866.04	2601.00
866.78	2587.00
867.52	2588.00
868.25	2591.00
868.99	2580.00
869.73	2586.00
870.47	2576.00
871.21	2583.00
871.95	2579.00
872.68	2591.00
873.42	2574.00
874.16	2576.00
874.90	2582.00
875.64	2573.00
876.37	2583.00
877.11	2576.00
877.85	2570.00
878.59	2570.00
879.32	2576.00
880.06	2568.00
880.80	2573.00
881.54	2568.00
882.27	2565.00
883.01	2562.00
883.75	2570.00
884.48	2568.00
885.22	2570.00
885.96	2568.00
886.70	2562.00
887.43	2564.00
888.17	2567.00
888.90	2562.00
889.64	2562.00
890.38	2565.00
891.11	2567.00
891.85	2564.00
892.59	2562.00
893.32	2564.00
894.06	2556.00
894.79	2561.00
895.53	2556.00
896.27	2560.00
897.00	2560.00
897.74	2558.00
898.47	2560.00
899.21	2566.00
899.94	2557.00
900.68	2559.00
901.41	2553.00
902.15	2557.00
902.88	2554.00
903.62	2550.00
904.35	2551.00
905.09	2576.00
905.82	2553.00
906.56	2558.00
907.29	2556.00
908.03	2547.00
908.76	2547.00
909.49	2549.00
910.23	2543.00
910.96	2546.00
911.70	2557.00
912.43	2548.00
913.16	2552.00
913.90	2541.00
914.63	2554.00
915.37	2549.00
916.10	2545.00
916.83	2547.00
917.57	2548.00
918.30	2545.00
919.03	2547.00
919.77	2548.00
920.50	2551.00
921.23	2549.00
921.97	2545.00
922.70	2549.00
923.43	2549.00
924.16	2546.00
924.90	2543.00
925.63	2543.00
926.36	2543.00
927.09	2548.00
927.83	2542.00
928.56	2549.00
929.29	2545.00
930.02	2556.00
930.75	2545.00
931.49	2555.00
932.22	2549.00
932.95	2552.00
933.68	2538.00
934.41	2541.00
935.14	2543.00
935.88	2548.00
936.61	2543.00
937.34	2547.00
938.07	2547.00
938.80	2544.00
939.53	2539.00
940.26	2539.00
940.99	2552.00
941.72	2546.00
942.46	2547.00
943.19	2541.00
943.92	2546.00
944.65	2536.00
945.38	2549.00
946.11	2542.00
946.84	2545.00
947.57	2542.00
948.30	2540.00
949.03	2539.00
949.76	2539.00
950.49	2548.00
951.22	2544.00
951.95	2541.00
952.68	2539.00
953.41	2537.00
954.14	2548.00
954.86	2536.00
955.59	2539.00
956.32	2543.00
957.05	2535.00
957.78	2542.00
958.51	2544.00
959.24	2540.00
959.97	2540.00
960.70	2538.00
961.43	2537.00
962.15	2538.00
962.88	2539.00
963.61	2538.00
964.34	2542.00
965.07	2542.00
965.80	2539.00
966.52	2533.00
967.25	2533.00
967.98	2535.00
968.71	2532.00
969.43	2533.00
970.16	2535.00
970.89	2531.00
971.62	2538.00
972.34	2528.00
973.07	2533.00
973.80	2532.00
974.53	2533.00
975.25	2536.00
975.98	2532.00
976.71	2532.00
977.43	2529.00
978.16	2532.00
978.89	2528.00
979.61	2525.00
980.34	2528.00
981.07	2534.00
981.79	2533.00
982.52	2533.00
983.25	2531.00
983.97	2530.00
984.70	2525.00
985.42	2534.00
986.15	2526.00
986.88	2531.00
987.60	2525.00
988.33	2527.00
989.05	2529.00
989.78	2530.00
990.50	2533.00
991.23	2532.00
991.95	2539.00
992.68	2534.00
993.40	2535.00
994.13	2538.00
994.85	2530.00
995.58	2533.00
996.30	2529.00
997.03	2527.00
997.75	2537.00
998.48	2531.00
999.20	2536.00
999.93	2532.00
1000.65	2534.00
1001.38	2526.00
1002.10	2528.00
1002.82	2523.00
1003.55	2531.00
1004.27	2527.00
1004.99	2530.00
1005.72	2528.00
1006.44	2530.00
1007.17	2529.00
1007.89	2526.00
1008.61	2530.00
1009.34	2533.00
1010.06	2528.00
1010.78	2529.00
1011.51	2524.00
1012.23	2534.00
1012.95	2526.00
1013.67	2531.00
1014.40	2533.00
1015.12	2527.00
1015.84	2536.00
1016.56	2535.00
1017.29	2530.00
1018.01	2536.00
1018.73	2537.00
1019.45	2530.00
1020.18	2527.00
1020.90	2535.00
1021.62	2530.00
1022.34	2532.00
1023.06	2537.00
1023.78	2543.00
1024.51	2527.00
1025.23	2527.00
1025.95	2532.00
1026.67	2537.00
1027.39	2532.00
1028.11	2537.00
1028.83	2534.00
1029.55	2528.00
1030.28	2537.00
1031.00	2531.00
1031.72	2537.00
1032.44	2538.00
1033.16	2530.00
1033.88	2535.00
1034.60	2540.00
1035.32	2535.00
1036.04	2535.00
1036.76	2532.00
1037.48	2533.00
1038.20	2535.00
1038.92	2533.00
1039.64	2536.00
1040.36	2532.00
1041.08	2533.00
1041.80	2535.00
1042.52	2527.00
1043.24	2533.00
1043.96	2534.00
1044.68	2539.00
1045.40	2543.00
1046.11	2538.00
1046.83	2534.00
1047.55	2537.00
1048.27	2534.00
1048.99	2537.00
1049.71	2536.00
1050.43	2543.00
1051.15	2529.00
1051.86	2546.00
1052.58	2537.00
1053.30	2539.00
1054.02	2535.00
1054.74	2545.00
1055.45	2554.00
1056.17	2539.00
1056.89	2533.00
1057.61	2537.00
1058.33	2543.00
1059.04	2544.00
1059.76	2538.00
1060.48	2534.00
1061.20	2538.00
1061.91	2540.00
1062.63	2537.00
1063.35	2536.00
1064.06	2538.00
1064.78	2537.00
1065.50	2543.00
1066.22	2539.00
1066.93	2534.00
1067.65	2535.00
1068.36	2536.00
1069.08	2539.00
1069.80	2544.00
1070.51	2540.00
1071.23	2549.00
1071.95	2543.00
1072.66	2546.00
1073.38	2548.00
1074.09	2547.00
1074.81	2541.00
1075.53	2547.00
1076.24	2547.00
1076.96	2551.00
1077.67	2550.00
1078.39	2553.00
1079.10	2548.00
1079.82	2560.00
1080.53	2551.00
1081.25	2554.00
1081.96	2561.00
1082.68	2555.00
1083.39	2551.00
1084.11	2555.00
1084.82	2553.00
1085.54	2572.00
1086.25	2563.00
1086.97	2562.00
1087.68	2565.00
1088.39	2567.00
1089.11	2574.00
1089.82	2566.00
1090.54	2571.00
1091.25	2568.00
1091.96	2562.00
1092.68	2576.00
1093.39	2568.00
1094.10	2571.00
1094.82	2573.00
1095.53	2570.00
1096.24	2577.00
1096.96	2572.00
1097.67	2571.00
1098.38	2570.00
1099.10	2570.00
1099.81	2578.00
1100.52	2572.00
1101.23	2569.00
1101.95	2579.00
1102.66	2572.00
1103.37	2570.00
1104.08	2575.00
1104.80	2570.00
1105.51	2574.00
1106.22	2580.00
1106.93	2567.00
1107.64	2565.00
1108.36	2585.00
1109.07	2567.00
1109.78	2566.00
1110.49	2562.00
1111.20	2573.00
1111.91	2573.00
1112.63	2571.00
1113.34	2572.00
1114.05	2575.00
1114.76	2569.00
1115.47	2571.00
1116.18	2573.00
1116.89	2482.00
1117.60	2482.00
1118.31	2477.00
1119.02	2480.00
1119.73	2549.00
1120.44	2547.00
1121.16	2544.00
1121.87	2541.00
1122.58	2548.00
1123.29	2542.00
1124.00	2571.00
1124.71	2565.00
1125.42	2570.00
1126.12	2580.00
1126.83	2564.00
1127.54	2570.00
1128.25	2488.00
1128.96	2483.00
1129.67	2488.00
1130.38	2500.00
